timestamps,TP9,AF7,AF8,TP10,Right AUX
1678793439.629,40.039,4.883,32.715,82.031,117.188
1678793439.633,62.012,22.949,51.270,-23.926,51.270
1678793439.637,23.926,38.086,58.105,-81.055,-12.695
1678793439.641,-10.254,37.109,53.223,-13.184,10.254
1678793439.645,2.441,25.391,45.410,118.652,17.090
1678793439.649,41.016,29.297,49.805,142.090,-36.133
1678793439.652,41.504,41.992,58.594,19.043,-20.020
1678793439.656,12.695,52.734,60.547,-70.801,15.625
1678793439.660,8.301,55.176,66.406,19.043,-0.977
1678793439.664,20.020,44.922,63.477,158.203,34.180
1678793439.668,14.160,29.297,38.086,127.930,54.688
1678793439.672,35.645,36.621,44.922,17.578,51.270
1678793439.676,37.109,55.664,66.406,-49.805,17.578
1678793439.680,10.254,57.129,65.430,-11.719,23.926
1678793439.684,0.977,54.199,54.199,115.723,83.008
1678793439.688,28.320,58.105,51.758,156.738,41.992
1678793439.691,51.270,66.406,61.523,53.711,-15.625
1678793439.695,50.781,77.637,72.266,-49.316,37.598
1678793439.699,35.645,83.984,65.430,-20.508,88.379
1678793439.703,19.043,66.895,50.781,84.473,51.270
1678793439.707,56.152,57.129,64.453,161.621,-20.996
1678793439.711,53.223,53.223,67.383,67.871,-68.359
1678793439.715,-5.371,41.992,72.266,-90.332,-19.531
1678793439.719,-20.020,47.852,85.938,-80.078,0.977
1678793439.723,-16.113,40.039,67.383,38.574,-25.879
1678793439.727,-11.719,20.508,61.523,98.145,-20.996
1678793439.731,-5.859,14.160,67.871,7.324,33.203
1678793439.734,-17.578,25.391,73.730,-113.770,32.227
1678793439.738,-42.969,36.133,83.496,-106.934,17.578
1678793439.742,-27.344,34.668,80.566,20.508,21.973
1678793439.746,-0.977,24.902,65.430,92.285,5.859
1678793439.750,15.625,24.902,61.523,40.527,46.875
1678793439.754,24.902,30.273,76.660,-60.059,51.758
1678793439.758,-24.902,24.414,75.195,-110.352,54.199
1678793439.762,-60.059,26.367,62.012,-13.184,66.895
1678793439.766,-28.320,22.461,56.152,102.539,88.867
1678793439.770,14.648,15.137,56.641,75.684,57.129
1678793439.773,20.020,22.461,69.824,-39.551,31.250
1678793439.777,-13.672,33.691,82.031,-68.848,-5.371
1678793439.781,-42.969,26.855,70.312,3.418,5.371
1678793439.785,-24.414,14.160,58.105,95.703,37.598
1678793439.789,14.160,18.555,57.617,99.121,20.996
1678793439.793,2.441,20.020,59.082,-44.922,42.969
1678793439.797,-5.371,30.762,78.125,-93.750,-34.180
1678793439.801,-29.297,29.785,69.824,-5.859,-25.879
1678793439.805,-31.738,13.184,44.434,91.797,55.664
1678793439.809,10.742,12.207,48.340,92.773,-12.207
1678793439.812,21.973,25.391,59.082,-39.062,-53.223
1678793439.816,-3.906,36.133,70.312,-116.699,19.043
1678793439.820,-38.574,24.414,67.383,-61.035,99.609
1678793439.824,-38.086,8.789,56.152,64.941,89.844
1678793439.828,1.953,11.230,45.410,92.285,56.641
1678793439.832,17.090,37.109,55.664,-15.625,41.016
1678793439.836,-5.859,49.805,73.242,-108.887,2.930
1678793439.840,-23.926,44.434,69.824,-72.266,-11.719
1678793439.844,-16.113,38.574,54.688,54.199,8.301
1678793439.848,-0.488,28.320,36.621,89.844,41.016
1678793439.851,12.207,34.668,42.480,-13.672,51.270
1678793439.855,-6.836,47.363,58.594,-118.164,63.477
1678793439.859,-35.156,48.828,63.477,-84.961,53.223
1678793439.863,-17.578,42.969,60.059,49.805,-14.160
1678793439.867,16.602,34.668,47.363,113.770,-38.574
1678793439.871,22.461,32.227,42.969,32.227,9.766
1678793439.875,0.000,38.086,50.293,-88.867,64.453
1678793439.879,-24.902,46.387,58.594,-77.148,80.078
1678793439.883,-27.344,34.180,50.781,47.852,49.316
1678793439.887,3.906,31.738,41.504,136.230,65.430
1678793439.891,21.973,43.457,41.016,54.199,36.621
1678793439.894,-8.301,53.223,44.434,-91.797,1.465
1678793439.898,-20.020,69.336,60.059,-100.586,-2.441
1678793439.902,-26.367,61.035,61.523,16.113,-23.926
1678793439.906,-17.578,38.574,47.852,115.723,-57.617
1678793439.910,12.207,32.227,44.434,72.266,-25.879
1678793439.914,16.113,43.457,61.035,-46.875,7.324
1678793439.918,-5.859,54.688,70.801,-83.984,-14.160
1678793439.922,-1.465,45.898,67.871,28.320,31.250
1678793439.926,7.324,25.879,52.734,126.465,46.387
1678793439.930,23.926,21.484,53.223,90.332,50.293
1678793439.933,43.457,30.273,76.172,-16.602,20.508
1678793439.937,-2.930,21.973,71.777,-93.262,-23.438
1678793439.941,-31.250,12.207,58.594,-26.367,13.184
1678793439.945,-1.465,1.953,48.340,92.285,33.203
1678793439.949,26.367,-5.371,41.992,91.797,10.254
1678793439.953,13.184,2.930,55.664,-18.066,20.996
1678793439.957,-1.953,13.184,71.289,-93.262,63.965
1678793439.961,-12.695,16.113,66.895,-30.273,18.555
1678793439.965,-6.348,3.906,49.805,82.520,40.039
1678793439.969,20.020,1.953,41.504,81.055,62.012
1678793439.973,20.508,22.461,49.805,-33.203,-3.906
1678793439.976,16.602,38.574,71.777,-100.098,27.344
1678793439.980,-1.465,40.527,70.801,-55.664,57.617
1678793439.984,-22.461,22.949,40.039,54.199,24.902
1678793439.988,3.906,13.672,33.691,90.820,33.691
1678793439.992,31.738,19.531,46.387,-8.789,66.895
1678793439.996,14.160,23.438,52.734,-102.539,3.418
1678793440.000,-15.137,26.855,55.176,-60.547,-58.105
1678793440.004,-19.531,27.344,44.922,61.523,1.465
1678793440.008,-0.977,23.926,35.645,123.535,-24.902
1678793440.012,24.902,31.738,42.969,40.039,-65.918
1678793440.015,25.391,44.434,54.688,-92.285,-26.367
1678793440.019,-4.883,42.480,58.105,-76.172,23.926
1678793440.023,-12.695,40.039,50.781,67.871,22.949
1678793440.027,3.418,42.969,38.574,142.090,46.387
1678793440.031,22.949,54.688,41.016,70.801,28.320
1678793440.035,17.578,67.383,45.410,-51.758,-9.766
1678793440.039,4.883,73.730,50.781,-49.316,11.719
1678793440.043,7.812,67.871,45.410,60.547,-8.789
1678793440.047,29.297,54.688,31.738,128.906,9.766
1678793440.051,41.992,58.105,36.133,89.355,10.254
1678793440.055,32.715,66.406,47.363,-34.668,15.137
1678793440.058,9.277,67.871,59.082,-62.988,49.316
1678793440.062,-17.090,59.570,44.434,33.691,22.949
1678793440.066,19.043,53.711,37.598,148.438,53.711
1678793440.070,68.359,60.059,57.129,138.184,78.613
1678793440.074,39.062,60.059,53.223,-18.066,20.996
1678793440.078,-0.977,62.500,44.434,-94.727,28.809
1678793440.082,-0.488,55.176,46.387,-1.953,55.664
1678793440.086,19.043,31.738,39.062,115.234,23.926
1678793440.090,37.109,25.879,37.598,102.051,-20.508
1678793440.094,39.062,36.133,47.852,-23.438,-22.949
1678793440.098,21.973,39.551,57.617,-97.168,23.926
1678793440.101,5.371,31.250,55.664,-11.230,66.895
1678793440.105,4.883,17.090,38.086,104.492,70.312
1678793440.109,34.180,9.766,36.133,113.281,73.730
1678793440.113,52.734,18.555,51.758,6.836,37.109
1678793440.117,33.691,35.156,64.941,-89.844,44.922
1678793440.121,14.160,36.133,60.547,-38.574,67.871
1678793440.125,6.348,16.602,39.551,78.125,7.812
1678793440.129,28.809,1.953,36.133,102.539,-11.719
1678793440.133,37.109,4.883,47.363,0.000,40.527
1678793440.137,17.090,19.531,61.523,-92.773,79.102
1678793440.141,-5.859,25.391,62.988,-57.617,19.043
1678793440.145,-10.742,16.113,41.992,66.406,7.324
1678793440.149,9.277,12.207,34.180,111.328,10.742
1678793440.152,18.555,19.531,37.109,10.742,25.391
1678793440.156,32.715,34.180,61.035,-86.426,30.762
1678793440.160,22.949,33.691,70.801,-64.941,-27.344
1678793440.164,-6.348,10.254,42.969,43.457,11.719
1678793440.168,19.531,-7.324,32.227,108.398,45.898
1678793440.172,40.527,-8.301,31.738,20.508,21.484
1678793440.176,10.742,3.906,41.016,-103.027,61.035
1678793440.180,-14.648,19.043,53.711,-98.145,14.160
1678793440.184,-6.348,16.113,46.875,29.297,-35.645
1678793440.188,16.113,8.301,42.480,120.605,-41.504
1678793440.192,38.574,16.113,50.293,53.223,-21.484
1678793440.195,39.062,37.598,60.547,-77.148,33.203
1678793440.199,11.719,44.434,63.965,-98.633,57.129
1678793440.203,2.441,39.551,62.500,23.438,47.852
1678793440.207,-13.184,36.133,43.457,110.840,40.527
1678793440.211,1.953,44.922,40.039,64.453,-11.230
1678793440.215,20.996,65.430,56.152,-62.988,-2.441
1678793440.219,4.395,70.801,62.500,-103.027,39.551
1678793440.223,-19.043,58.594,49.805,-7.812,26.855
1678793440.227,-10.742,50.781,37.598,93.262,54.688
1678793440.231,13.184,47.363,35.645,79.102,31.250
1678793440.234,20.020,58.594,52.734,-42.969,-9.277
1678793440.238,-6.836,68.848,70.312,-98.145,32.227
1678793440.242,-20.020,57.129,65.430,-8.301,3.418
1678793440.246,15.137,50.781,59.570,115.234,-21.973
1678793440.250,37.109,60.059,50.293,92.285,17.578
1678793440.254,25.391,66.895,52.734,-41.504,32.227
1678793440.258,3.906,74.707,71.777,-94.238,8.301
1678793440.262,-23.438,76.660,63.477,-24.902,22.461
1678793440.266,-10.254,73.242,44.434,81.543,11.719
1678793440.270,18.066,72.754,37.109,91.797,-38.086
1678793440.274,17.090,76.172,46.875,-29.785,21.484
1678793440.277,-5.371,83.008,60.547,-109.375,5.859
1678793440.281,-39.551,86.914,52.734,-51.758,-35.645
1678793440.285,-28.320,76.660,36.133,40.527,36.621
1678793440.289,0.000,71.777,31.250,74.707,49.316
1678793440.293,23.438,87.402,55.176,-5.371,32.227
1678793440.297,-1.953,95.703,62.012,-118.652,18.555
1678793440.301,-46.875,92.773,41.992,-104.980,16.602
1678793440.305,-26.367,85.449,43.457,37.598,29.297
1678793440.309,-14.160,69.824,34.180,85.938,72.754
1678793440.313,-5.371,69.336,34.668,-17.090,83.008
1678793440.317,-0.977,69.336,51.270,-127.441,2.930
1678793440.320,-29.297,62.500,50.781,-97.656,26.855
1678793440.324,-32.715,55.664,37.109,26.367,23.438
1678793440.328,-10.742,42.969,20.996,82.520,31.738
1678793440.332,16.113,47.363,28.320,6.836,9.766
1678793440.336,25.391,73.242,54.688,-95.703,4.395
1678793440.340,6.348,87.402,63.477,-77.637,23.438
1678793440.344,-40.527,70.801,36.621,4.395,-5.859
1678793440.348,-36.133,69.824,26.367,75.195,-61.035
1678793440.352,10.742,89.844,36.621,49.316,-17.578
1678793440.356,6.836,95.215,48.340,-69.336,56.641
1678793440.360,-20.508,99.609,60.059,-109.863,81.055
1678793440.363,-34.668,89.355,50.293,-10.742,129.883
1678793440.367,-23.438,68.359,42.969,92.285,114.258
1678793440.371,4.395,73.730,56.152,58.594,47.363
1678793440.375,-11.719,86.914,69.824,-61.523,1.465
1678793440.379,-42.480,86.426,71.289,-115.234,46.875
1678793440.383,-42.480,76.660,72.754,-25.391,-2.441
1678793440.387,-36.133,56.641,56.152,83.984,-13.672
1678793440.391,-13.184,41.504,42.480,42.480,45.898
1678793440.395,-8.301,50.293,62.500,-72.754,31.738
1678793440.399,-42.480,59.082,76.172,-106.934,53.711
1678793440.403,-56.152,43.457,74.219,-4.395,45.410
1678793440.406,-53.223,9.277,54.688,85.938,0.977
1678793440.410,-18.066,-12.695,43.457,79.590,16.113
1678793440.414,10.742,-5.371,58.105,-7.324,47.363
1678793440.418,-14.160,-13.184,75.195,-91.797,59.570
1678793440.422,-32.715,-39.551,70.801,-32.715,73.242
1678793440.426,-8.789,-45.410,65.918,120.605,63.965
1678793440.430,24.902,-63.965,71.777,154.785,67.871
1678793440.434,26.855,-102.051,66.895,22.949,58.105
1678793440.438,17.578,-132.324,76.172,-74.219,-20.020
1678793440.442,-12.207,-171.387,79.102,-31.250,-16.113
1678793440.445,-12.695,-220.215,68.359,93.262,48.340
1678793440.449,6.836,-261.230,55.176,125.488,28.809
1678793440.453,20.996,-296.875,55.664,33.203,-40.039
1678793440.457,8.301,-334.961,74.219,-67.871,-48.340
1678793440.461,-26.855,-380.859,89.355,-58.594,3.906
1678793440.465,-29.785,-436.523,83.496,61.035,42.480
1678793440.469,2.930,-478.027,69.336,104.980,64.453
1678793440.473,47.363,-512.695,86.426,38.086,87.402
1678793440.477,27.832,-550.293,96.191,-81.543,39.551
1678793440.481,-20.020,-574.219,80.566,-116.211,5.371
1678793440.485,-26.855,-582.031,71.289,0.977,6.836
1678793440.488,-16.113,-585.938,67.383,62.988,2.441
1678793440.492,13.184,-577.148,73.242,0.488,43.945
1678793440.496,19.531,-555.176,80.078,-95.703,65.430
1678793440.500,-5.859,-538.574,77.637,-112.793,49.316
1678793440.504,-23.438,-526.855,60.059,-18.066,84.473
1678793440.508,0.977,-515.625,47.363,56.152,45.410
1678793440.512,20.508,-508.789,51.758,10.742,25.879
1678793440.516,23.438,-488.281,69.824,-81.543,68.848
1678793440.520,9.766,-465.332,78.125,-123.535,24.902
1678793440.524,-23.438,-458.008,64.941,-41.504,-18.555
1678793440.528,-3.418,-442.383,56.641,65.918,-11.719
1678793440.531,30.762,-410.156,56.152,36.133,-26.855
1678793440.535,43.457,-376.465,63.477,-67.383,-21.484
1678793440.539,12.207,-352.051,72.754,-108.887,6.348
1678793440.543,-16.113,-345.215,71.289,-30.762,74.707
1678793440.547,-3.906,-351.562,53.223,61.035,113.281
1678793440.551,3.418,-345.215,42.969,43.457,77.148
1678793440.555,-3.906,-323.730,53.223,-50.781,44.434
1678793440.559,-20.508,-303.711,60.547,-128.418,56.641
1678793440.563,-6.348,-285.645,71.289,-42.480,64.453
1678793440.567,-11.230,-279.297,61.523,64.941,-14.160
1678793440.570,-19.531,-278.809,39.551,34.668,-4.883
1678793440.574,-1.465,-253.418,53.223,-66.895,22.461
1678793440.578,-5.371,-226.074,67.383,-136.230,-17.578
1678793440.582,-15.625,-210.449,64.941,-83.008,-5.371
1678793440.586,-6.348,-199.219,56.152,26.855,29.297
1678793440.590,13.184,-196.289,46.387,41.504,47.852
1678793440.594,20.508,-183.105,50.293,-61.523,20.508
1678793440.598,3.906,-168.457,68.359,-150.879,10.254
1678793440.602,-26.367,-162.598,65.918,-103.516,11.719
1678793440.606,-11.230,-153.809,54.199,14.160,42.480
1678793440.610,18.555,-143.066,55.664,44.434,40.039
1678793440.613,7.812,-138.672,49.805,-54.199,44.922
1678793440.617,6.836,-131.348,66.895,-141.113,21.484
1678793440.621,-15.625,-120.605,74.707,-107.422,56.641
1678793440.625,-21.484,-132.812,60.059,3.418,80.078
1678793440.629,13.672,-149.414,53.223,78.125,-5.371
1678793440.633,33.203,-138.672,59.570,4.395,-35.645
1678793440.637,13.672,-125.488,66.406,-119.629,23.926
1678793440.641,-16.113,-114.746,67.383,-111.816,35.645
1678793440.645,-14.648,-106.445,57.129,-8.301,14.648
1678793440.649,2.441,-107.910,38.086,56.641,25.391
1678793440.652,43.457,-96.680,56.152,28.320,4.395
1678793440.656,39.062,-73.730,72.266,-87.402,6.348
1678793440.660,-23.438,-71.777,56.641,-130.859,-20.996
1678793440.664,-27.344,-82.031,56.641,-32.715,21.484
1678793440.668,15.625,-78.125,49.316,54.199,61.523
1678793440.672,34.180,-70.801,44.434,23.438,21.484
1678793440.676,29.785,-57.129,54.688,-103.516,20.020
1678793440.680,15.137,-41.504,66.895,-127.930,34.180
1678793440.684,-12.695,-41.992,56.641,-41.016,60.059
1678793440.688,-10.742,-46.875,36.621,45.898,95.703
1678793440.692,1.953,-44.922,34.180,37.598,41.992
1678793440.695,22.949,-35.156,55.176,-56.152,-23.438
1678793440.699,8.301,-33.203,62.988,-97.168,39.551
1678793440.703,-26.367,-38.574,43.945,-48.340,26.367
1678793440.707,-3.906,-47.363,36.133,53.223,-6.348
1678793440.711,10.254,-50.293,35.156,60.547,-6.836
1678793440.715,13.672,-34.668,41.504,-51.270,-18.555
1678793440.719,0.977,-16.113,53.711,-116.699,-26.855
1678793440.723,-25.879,-20.996,54.199,-55.176,16.113
1678793440.727,-10.254,-36.621,47.363,63.477,65.918
1678793440.731,20.020,-32.227,42.480,77.637,62.500
1678793440.734,20.020,-30.273,49.805,-38.086,26.367
1678793440.738,3.906,-28.809,62.500,-111.816,-22.949
1678793440.742,5.859,-7.812,75.684,-47.852,-23.438
1678793440.746,-2.930,-16.113,58.105,46.875,65.918
1678793440.750,4.883,-30.762,36.621,64.453,43.945
1678793440.754,27.344,-19.531,52.246,-22.461,-0.977
1678793440.758,7.812,-5.371,70.801,-116.699,0.977
1678793440.762,-16.113,0.000,74.219,-69.824,5.371
1678793440.766,-12.207,-8.789,59.082,51.758,22.949
1678793440.770,26.367,-20.508,55.176,99.609,0.000
1678793440.774,39.062,-12.207,65.430,29.785,25.391
1678793440.777,5.371,0.488,76.660,-82.031,79.102
1678793440.781,-11.719,-2.930,78.613,-91.797,-9.766
1678793440.785,-1.953,-10.742,68.848,26.855,-31.738
1678793440.789,18.555,-7.812,67.871,105.469,40.039
1678793440.793,20.020,0.977,63.965,27.832,83.496
1678793440.797,7.812,21.484,74.219,-88.867,74.219
1678793440.801,-19.531,27.832,83.984,-94.238,45.898
1678793440.805,-20.020,13.184,81.055,23.926,61.523
1678793440.809,0.488,1.953,78.613,116.699,20.508
1678793440.813,15.137,0.488,74.707,56.152,12.695
1678793440.816,3.906,13.184,87.891,-60.059,24.414
1678793440.820,-7.812,18.555,106.934,-75.684,6.348
1678793440.824,-20.020,19.043,95.703,12.207,7.812
1678793440.828,-30.273,9.277,72.266,86.426,59.570
1678793440.832,22.461,12.695,86.914,73.730,47.363
1678793440.836,24.414,18.555,98.633,-33.691,15.137
1678793440.840,-19.043,6.348,93.262,-101.074,77.637
1678793440.844,-16.113,8.789,95.703,-4.883,31.738
1678793440.848,0.977,16.113,83.984,104.492,-10.742
1678793440.852,30.273,22.461,82.520,83.496,15.625
1678793440.855,32.227,27.832,98.145,-27.832,-1.953
1678793440.859,3.906,32.227,104.980,-90.820,20.996
1678793440.863,-17.578,43.457,99.121,-6.836,37.598
1678793440.867,-7.324,51.758,90.820,114.746,39.062
1678793440.871,4.395,57.129,77.148,84.961,50.293
1678793440.875,20.020,81.055,89.355,-24.414,-17.578
1678793440.879,14.648,107.422,112.305,-78.613,-24.414
1678793440.883,-26.367,107.910,94.238,-42.969,49.805
1678793440.887,-14.160,96.680,78.613,78.613,64.941
1678793440.891,25.391,94.238,83.496,103.516,20.508
1678793440.894,23.438,105.957,92.285,-1.465,8.789
1678793440.898,-1.465,118.164,101.074,-78.613,36.133
1678793440.902,-7.324,122.070,101.074,-35.156,24.902
1678793440.906,8.301,108.398,93.262,77.637,42.969
1678793440.910,13.184,100.586,85.449,103.027,20.996
1678793440.914,22.461,104.980,87.402,2.930,20.508
1678793440.918,14.160,107.910,94.238,-104.492,52.246
1678793440.922,-14.648,118.164,103.516,-77.148,22.461
1678793440.926,-35.645,108.398,88.867,37.598,9.277
1678793440.930,-28.320,99.609,69.336,74.219,31.250
1678793440.934,-14.648,113.281,79.590,1.465,52.246
1678793440.937,-22.949,128.418,95.215,-94.727,83.008
1678793440.941,-29.785,135.254,101.074,-93.262,68.848
1678793440.945,-28.320,130.371,90.820,33.691,0.000
1678793440.949,-5.371,115.723,81.543,106.934,4.395
1678793440.953,16.602,101.074,82.520,42.480,53.223
1678793440.957,6.348,107.422,88.867,-56.152,24.902
1678793440.961,-6.836,122.559,98.145,-60.547,13.672
1678793440.965,-4.395,124.512,92.285,39.062,43.945
1678793440.969,30.762,122.559,87.891,119.141,5.859
1678793440.973,26.367,117.676,77.148,54.688,-12.207
1678793440.976,-13.184,117.188,73.242,-78.613,53.711
1678793440.980,-14.648,127.930,96.191,-89.844,56.152
1678793440.984,-17.090,122.070,95.703,4.395,8.301
1678793440.988,-6.348,111.816,79.102,109.375,7.812
1678793440.992,24.414,120.605,82.031,97.168,39.551
1678793440.996,29.297,122.559,95.215,-29.297,45.410
1678793441.000,10.742,109.863,107.422,-81.055,40.039
1678793441.004,12.695,99.609,105.469,3.418,-9.766
1678793441.008,30.762,92.285,94.238,111.328,-69.824
1678793441.012,60.059,83.008,92.285,119.141,-9.766
1678793441.015,51.758,83.496,93.750,-1.953,47.852
1678793441.019,4.883,88.867,94.238,-74.707,22.461
1678793441.023,-12.695,81.543,93.262,10.254,17.090
1678793441.027,-6.836,63.477,75.684,105.469,34.180
1678793441.031,28.809,60.059,72.754,114.258,15.625
1678793441.035,43.457,66.406,84.473,8.789,42.480
1678793441.039,39.062,71.289,98.145,-75.195,74.219
1678793441.043,18.066,67.383,97.168,-25.879,53.711
1678793441.047,11.719,48.828,78.613,82.520,35.156
1678793441.051,34.180,38.574,71.289,110.352,22.949
1678793441.054,47.852,51.270,86.914,26.855,50.293
1678793441.058,33.203,70.312,105.957,-74.707,57.617
1678793441.062,-6.348,64.941,91.797,-70.312,41.016
1678793441.066,-3.906,55.176,70.801,53.223,-4.883
1678793441.070,41.016,46.875,73.730,121.582,12.695
1678793441.074,68.848,46.387,80.566,48.340,36.621
1678793441.078,46.875,63.965,89.355,-59.570,13.184
1678793441.082,18.066,74.219,90.332,-47.852,2.441
1678793441.086,40.527,74.707,73.242,83.008,22.949
1678793441.090,93.750,70.312,66.895,178.223,-0.488
1678793441.093,109.863,70.801,72.266,108.398,-12.207
1678793441.097,107.910,65.918,73.730,-6.836,35.156
1678793441.101,97.168,48.828,83.008,22.949,30.762
1678793441.105,90.820,34.668,82.031,129.883,-4.883
1678793441.109,104.004,35.156,66.406,195.801,-11.719
1678793441.113,125.000,34.668,67.383,144.531,4.395
1678793441.117,130.859,40.039,80.566,24.902,21.973
1678793441.121,88.379,53.223,88.867,2.441,27.832
1678793441.125,68.359,58.105,84.961,102.539,46.875
1678793441.129,97.168,47.363,72.266,193.359,40.527
1678793441.133,123.047,40.039,68.848,158.203,36.133
1678793441.137,125.000,49.805,83.496,41.016,40.039
1678793441.141,99.121,64.941,90.820,-11.719,-0.488
1678793441.144,70.312,64.453,83.008,52.734,-3.906
1678793441.148,82.520,54.688,86.914,173.340,74.219
1678793441.152,87.891,51.758,80.078,148.926,71.777
1678793441.156,78.613,48.828,78.125,5.859,13.672
1678793441.160,50.293,47.363,88.379,-50.781,26.855
1678793441.164,30.762,42.480,76.660,20.996,72.754
1678793441.168,51.758,35.156,68.359,124.512,21.484
1678793441.172,70.801,20.020,62.500,117.188,-13.672
1678793441.176,59.570,20.996,70.801,14.648,20.996
1678793441.180,34.668,32.715,81.055,-63.477,24.902
1678793441.184,18.066,35.645,77.148,2.441,20.508
1678793441.187,15.625,38.574,66.895,120.605,53.223
1678793441.191,48.340,40.039,65.918,137.695,25.391
1678793441.195,59.082,47.363,76.172,33.691,14.648
1678793441.199,34.180,62.012,85.449,-57.129,7.324
1678793441.203,1.953,61.523,85.449,-26.855,53.711
1678793441.207,-6.348,53.223,70.801,78.125,53.711
1678793441.211,20.508,53.711,65.918,123.047,2.441
1678793441.215,44.922,71.777,79.590,39.551,-30.273
1678793441.219,32.227,89.844,83.984,-48.828,6.348
1678793441.223,7.324,97.656,76.172,-34.668,61.523
1678793441.227,19.043,104.492,71.289,71.289,10.254
1678793441.230,40.527,101.074,61.523,128.418,-12.207
1678793441.234,53.711,111.816,69.824,56.641,-18.066
1678793441.238,33.691,133.301,82.031,-55.176,17.090
1678793441.242,10.742,163.574,80.566,-52.246,42.480
1678793441.246,10.254,192.383,71.289,60.059,29.785
1678793441.250,24.902,202.637,55.664,117.676,76.660
1678793441.254,50.293,221.191,60.059,52.246,49.805
1678793441.258,35.645,246.094,76.660,-51.758,-7.324
1678793441.262,16.113,258.789,78.125,-66.406,-13.184
1678793441.266,14.648,246.582,62.988,25.391,38.086
1678793441.270,29.297,224.609,59.570,112.305,24.902
1678793441.273,34.180,213.379,70.801,80.078,-28.809
1678793441.277,16.602,215.332,80.566,-32.715,6.348
1678793441.281,21.484,219.238,98.145,-55.176,4.883
1678793441.285,1.953,201.660,99.609,35.645,15.625
1678793441.289,-24.902,181.152,72.754,113.281,79.590
1678793441.293,19.043,184.082,70.312,92.773,53.711
1678793441.297,20.996,190.430,76.660,-26.855,34.668
1678793441.301,-16.113,193.359,82.031,-79.102,17.090
1678793441.305,-29.297,190.430,77.148,2.930,3.906
1678793441.309,-17.578,176.758,64.941,113.770,75.684
1678793441.313,15.625,169.922,69.824,116.211,25.391
1678793441.316,30.762,176.758,83.496,-2.930,-16.113
1678793441.320,22.949,183.594,88.867,-77.637,0.977
1678793441.324,-4.883,181.152,79.102,-8.789,54.199
1678793441.328,4.883,173.828,77.637,122.559,117.676
1678793441.332,39.551,162.598,72.754,122.559,29.785
1678793441.336,45.410,159.668,71.777,14.160,-13.672
1678793441.340,18.555,160.645,83.984,-61.523,63.477
1678793441.344,-18.555,155.273,83.984,-27.344,83.008
1678793441.348,-9.277,155.762,73.730,100.586,21.973
1678793441.352,30.273,155.273,68.848,129.395,14.648
1678793441.356,40.527,155.273,78.613,22.461,-9.277
1678793441.359,23.438,151.367,92.285,-68.848,29.297
1678793441.363,8.789,146.484,98.633,-29.785,10.742
1678793441.367,-5.859,135.254,83.008,89.355,28.320
1678793441.371,40.527,136.230,86.914,154.785,80.078
1678793441.375,68.359,147.461,100.098,64.453,30.273
1678793441.379,34.180,146.484,95.215,-57.617,28.809
1678793441.383,12.207,145.020,103.516,-26.855,0.000
1678793441.387,1.953,131.836,93.750,67.871,-43.945
1678793441.391,20.996,119.629,75.684,108.887,4.883
1678793441.395,47.852,124.512,88.379,53.223,63.477
1678793441.399,33.203,131.836,110.352,-58.594,57.129
1678793441.402,9.277,131.348,118.652,-64.941,9.277
1678793441.406,3.418,126.465,114.258,52.734,-12.695
1678793441.410,13.672,122.559,104.980,127.930,54.199
1678793441.414,45.898,126.465,106.934,82.520,69.336
1678793441.418,67.383,141.113,132.324,-23.438,-17.090
1678793441.422,27.832,142.090,126.465,-75.195,-22.949
1678793441.426,0.977,123.535,108.398,5.371,5.371
1678793441.430,21.973,116.211,110.840,102.051,43.457
1678793441.434,41.504,115.234,102.539,69.336,13.184
1678793441.438,39.062,117.188,107.422,-61.035,-1.465
1678793441.441,20.996,123.047,121.094,-89.844,52.246
1678793441.445,1.465,114.746,111.816,11.230,62.500
1678793441.449,9.277,103.516,94.238,90.332,72.266
1678793441.453,38.574,102.539,95.703,74.219,47.363
1678793441.457,39.062,110.352,104.004,-44.922,-16.602
1678793441.461,32.715,120.605,119.141,-85.938,-46.875
1678793441.465,15.137,106.934,112.793,-11.230,20.996
1678793441.469,3.906,83.496,85.449,62.012,63.965
1678793441.473,38.086,81.543,84.473,76.660,22.461
1678793441.477,55.176,90.820,99.121,-16.602,1.465
1678793441.481,32.227,104.492,105.469,-99.121,-4.395
1678793441.484,-6.836,101.562,99.121,-31.738,-18.555
1678793441.488,-16.602,87.402,91.797,93.262,20.020
1678793441.492,20.020,80.078,91.309,113.770,17.578
1678793441.496,35.156,83.984,97.168,12.695,-16.602
1678793441.500,15.625,90.820,100.586,-75.684,-30.273
1678793441.504,-8.789,79.590,95.703,-31.250,37.109
1678793441.508,11.230,58.594,95.215,90.820,67.871
1678793441.512,23.926,41.992,81.543,111.328,11.230
1678793441.516,9.766,41.992,74.219,6.836,47.363
1678793441.520,2.441,53.711,91.309,-76.172,90.820
1678793441.524,-11.230,59.570,103.027,-41.504,65.918
1678793441.527,-20.996,48.340,94.727,71.777,12.695
1678793441.531,10.254,34.180,80.078,121.094,-5.859
1678793441.535,34.668,35.645,86.914,32.715,-12.695
1678793441.539,9.277,46.387,100.098,-76.660,-8.301
1678793441.543,-9.277,52.734,104.980,-62.012,46.875
1678793441.547,-14.160,40.527,91.797,45.898,24.414
1678793441.551,19.043,27.832,88.867,121.582,34.668
1678793441.555,43.945,33.691,101.074,65.918,73.730
1678793441.559,13.672,37.109,92.285,-57.617,17.578
1678793441.563,-14.160,29.297,92.285,-62.988,41.016
1678793441.567,-19.531,16.113,94.727,28.809,48.340
1678793441.570,-5.371,2.930,89.355,109.863,20.508
1678793441.574,0.000,-0.977,90.820,69.336,27.344
1678793441.578,-27.832,10.254,95.703,-87.402,45.410
1678793441.582,-68.848,18.555,92.773,-140.137,41.992
1678793441.586,-68.359,17.090,89.355,-55.176,61.523
1678793441.590,-50.781,17.090,83.496,34.668,54.199
1678793441.594,-42.480,12.207,74.707,6.836,-0.977
1678793441.598,-29.785,20.020,97.168,-83.496,18.066
1678793441.602,-58.105,25.879,108.398,-123.047,41.016
1678793441.606,-85.449,16.602,91.797,-67.383,11.230
1678793441.610,-54.199,9.766,86.914,41.504,-23.438
1678793441.613,-20.508,8.301,82.031,47.363,-24.414
1678793441.617,-15.137,23.438,79.102,-51.758,57.617
1678793441.621,-20.996,37.598,84.961,-115.234,26.855
1678793441.625,-42.480,39.551,85.938,-53.711,34.180
1678793441.629,-42.969,25.391,76.172,59.570,76.172
1678793441.633,-16.602,15.137,70.801,70.801,105.957
1678793441.637,-17.090,30.762,80.566,-41.016,127.930
1678793441.641,-15.625,50.293,99.609,-107.910,82.520
1678793441.645,-25.391,56.152,98.633,-51.758,53.711
1678793441.649,-51.270,39.062,67.383,40.527,17.578
1678793441.652,-23.438,31.250,62.500,77.148,56.641
1678793441.656,-3.418,41.504,75.195,-14.648,69.336
1678793441.660,-7.324,44.922,83.496,-99.121,-3.418
1678793441.664,-24.414,37.109,86.426,-53.223,48.828
1678793441.668,-43.945,23.438,72.754,49.316,58.594
1678793441.672,-20.020,20.508,59.570,88.867,2.441
1678793441.676,7.812,35.645,68.848,5.859,44.922
1678793441.680,3.906,57.129,86.914,-90.332,24.902
1678793441.684,-22.949,58.594,87.402,-90.332,-5.859
1678793441.688,-2.930,54.688,83.008,42.480,19.043
1678793441.692,7.812,41.504,68.848,109.863,50.293
1678793441.695,2.441,35.645,64.941,25.391,19.043
1678793441.699,9.766,57.129,82.520,-65.430,19.531
1678793441.703,-15.137,66.895,84.961,-85.938,27.344
1678793441.707,-13.184,55.664,78.613,17.090,31.250
1678793441.711,20.996,41.016,78.613,117.676,26.855
1678793441.715,35.156,36.621,79.590,61.523,-59.082
1678793441.719,24.414,41.016,83.496,-62.500,-27.832
1678793441.723,2.930,39.062,90.820,-85.938,90.820
1678793441.727,-2.441,36.621,82.031,4.883,41.504
1678793441.731,33.203,38.086,75.195,112.793,18.066
1678793441.734,66.406,34.180,78.125,86.426,68.359
1678793441.738,26.367,34.180,73.730,-46.875,61.035
1678793441.742,-13.672,47.363,86.426,-87.402,22.461
1678793441.746,-17.578,50.781,90.820,7.324,-34.180
1678793441.750,0.977,35.645,71.777,103.516,14.160
1678793441.754,37.598,27.832,69.336,76.172,47.852
1678793441.758,50.781,39.062,88.867,-20.996,47.363
1678793441.762,24.414,47.363,99.121,-78.125,37.598
1678793441.766,-0.488,44.922,87.891,-10.254,-27.832
1678793441.770,2.930,30.273,73.242,107.910,-7.324
1678793441.774,31.738,20.996,68.848,105.957,36.621
1678793441.777,65.918,41.504,91.309,15.137,41.504
1678793441.781,21.973,53.711,99.609,-61.035,19.043
1678793441.785,-34.668,47.852,83.008,-22.461,-13.672
1678793441.789,-13.672,45.898,72.754,92.773,8.789
1678793441.793,18.555,38.086,69.336,102.051,60.059
1678793441.797,30.762,43.457,83.008,13.672,36.133
1678793441.801,24.414,55.176,96.191,-72.754,-25.391
1678793441.805,2.930,52.246,94.727,-39.551,0.488
1678793441.809,8.789,41.992,84.961,85.449,44.434
1678793441.813,26.855,33.691,75.195,115.234,40.527
1678793441.816,21.484,41.504,77.637,4.395,58.105
1678793441.820,26.855,57.617,98.145,-80.078,57.617
1678793441.824,18.555,65.430,104.492,-48.340,-25.879
1678793441.828,-5.859,51.270,74.707,53.711,-4.883
1678793441.832,9.277,32.715,60.547,101.074,12.207
1678793441.836,31.250,26.855,69.824,20.020,10.254
1678793441.840,16.602,33.203,78.613,-87.891,2.441
1678793441.844,-5.859,40.527,73.730,-82.031,12.695
1678793441.848,-6.348,36.621,67.871,40.039,27.344
1678793441.852,17.578,29.297,71.289,132.812,-16.113
1678793441.856,25.391,26.367,73.730,60.547,-4.883
1678793441.859,6.836,34.668,78.613,-80.078,42.969
1678793441.863,-2.441,48.828,82.031,-87.402,54.688
1678793441.867,11.719,49.805,83.496,39.551,26.367
1678793441.871,22.461,34.180,70.801,116.699,38.574
1678793441.875,28.320,28.809,58.594,49.316,33.203
1678793441.879,36.621,41.016,69.336,-59.570,-47.363
1678793441.883,-1.465,44.434,70.312,-79.590,-25.391
1678793441.887,-29.297,36.621,64.453,19.531,56.152
1678793441.891,-6.836,36.621,61.035,119.629,39.551
1678793441.895,21.484,41.504,63.965,99.121,49.805
1678793441.898,21.973,49.316,78.125,-17.578,63.965
1678793441.902,0.977,54.199,85.449,-70.312,-39.551
1678793441.906,-14.648,41.504,76.172,13.672,-48.340
1678793441.910,17.090,38.086,73.730,128.418,45.898
1678793441.914,43.945,47.363,79.102,122.559,40.039
1678793441.918,15.625,49.805,84.961,-2.441,32.715
1678793441.922,12.695,58.594,94.238,-58.594,11.230
1678793441.926,2.441,62.500,67.383,-3.906,34.668
1678793441.930,11.719,48.340,51.758,103.027,61.035
1678793441.934,58.105,42.480,58.105,125.000,56.641
1678793441.937,68.359,53.711,58.594,15.625,78.613
1678793441.941,52.734,62.012,71.289,-57.617,12.207
1678793441.945,48.340,70.312,69.824,14.160,41.992
1678793441.949,59.082,63.477,52.734,136.230,24.414
1678793441.953,81.543,52.246,42.969,146.484,0.000
1678793441.957,130.371,66.406,68.848,68.848,49.316
1678793441.961,105.957,66.895,85.449,-14.648,-1.465
1678793441.965,43.457,51.270,66.895,-0.977,-51.758
1678793441.969,55.664,44.922,49.316,118.652,4.395
1678793441.973,80.078,38.086,44.922,168.457,40.039
1678793441.977,92.773,41.992,59.082,75.684,-5.371
1678793441.980,85.938,48.828,69.824,-26.855,3.906
1678793441.984,66.406,49.805,69.824,-14.648,17.090
1678793441.988,62.988,37.109,59.082,93.262,39.551
1678793441.992,84.961,25.391,58.105,171.875,79.102
1678793441.996,76.660,24.414,60.547,84.961,30.273
1678793442.000,49.805,27.344,67.383,-33.203,-6.836
1678793442.004,51.758,38.574,80.078,-4.883,8.301
1678793442.008,27.344,28.320,62.012,80.566,16.602
1678793442.012,41.016,21.973,53.223,142.578,-23.926
1678793442.016,68.848,37.109,60.059,88.867,-36.621
1678793442.019,55.664,50.781,70.801,-25.391,49.805
1678793442.023,41.016,56.152,83.008,-32.227,8.789
1678793442.027,30.762,40.527,70.312,69.824,-20.996
1678793442.031,45.410,26.367,58.594,157.227,32.227
1678793442.035,80.078,28.320,64.941,121.094,51.270
1678793442.039,83.496,36.621,80.566,17.090,45.898
1678793442.043,44.434,42.480,77.637,-38.574,5.371
1678793442.047,44.434,45.898,68.359,54.199,15.625
1678793442.051,51.270,40.039,65.430,163.086,77.637
1678793442.055,41.504,23.926,52.246,110.840,76.660
1678793442.058,49.316,37.598,58.105,-1.465,28.320
1678793442.062,35.156,56.641,66.406,-54.688,-17.578
1678793442.066,11.230,52.734,56.152,9.277,-21.973
1678793442.070,4.883,44.922,40.039,111.328,42.969
1678793442.074,21.484,47.363,39.062,95.215,71.777
1678793442.078,38.574,54.199,50.781,-20.508,35.645
1678793442.082,24.902,58.594,62.988,-83.008,14.160
1678793442.086,1.465,54.688,60.059,-20.996,46.875
1678793442.090,11.719,44.434,47.363,92.285,38.574
1678793442.094,47.852,38.574,49.316,111.816,-36.133
1678793442.097,44.922,44.434,59.082,-3.906,-11.719
1678793442.101,19.043,60.547,67.871,-83.984,-11.719
1678793442.105,-0.488,61.523,67.383,-26.855,-27.344
1678793442.109,-7.324,51.758,50.293,83.984,42.969
1678793442.113,14.160,44.922,38.574,110.352,30.762
1678793442.117,35.156,50.293,45.898,9.766,-30.273
1678793442.121,21.484,58.105,55.664,-79.102,6.836
1678793442.125,-0.977,56.641,56.641,-44.922,30.762
1678793442.129,-4.883,53.711,47.363,68.359,62.988
1678793442.133,12.207,55.664,38.574,122.559,21.973
1678793442.137,43.457,68.359,48.340,47.363,-37.109
1678793442.140,23.926,75.684,57.617,-64.453,49.805
1678793442.144,-16.602,71.289,55.664,-72.754,56.641
1678793442.148,-3.418,66.895,54.688,50.781,-10.742
1678793442.152,20.996,58.594,47.363,118.652,33.691
1678793442.156,44.922,56.152,50.293,57.129,14.160
1678793442.160,42.969,64.453,61.035,-52.246,-22.949
1678793442.164,19.531,77.148,70.801,-63.965,-1.953
1678793442.168,-5.371,74.219,62.988,47.363,10.254
1678793442.172,0.488,67.383,47.363,120.605,43.457
1678793442.176,28.809,67.871,46.875,65.918,40.527
1678793442.179,39.551,75.195,66.406,-38.086,-65.918
1678793442.183,23.438,81.543,83.984,-53.223,-62.988
1678793442.187,-9.766,72.266,65.918,21.484,22.461
1678793442.191,-8.789,60.547,48.828,95.215,0.000
1678793442.195,13.672,65.430,51.270,65.430,44.922
1678793442.199,16.602,74.219,64.453,-50.781,89.844
1678793442.203,-0.977,74.219,75.195,-87.402,54.199
1678793442.207,-2.441,63.477,70.312,5.371,43.945
1678793442.211,9.766,46.875,57.617,99.609,38.574
1678793442.215,26.855,46.875,56.641,83.008,7.324
1678793442.219,36.621,60.059,69.824,-21.973,13.672
1678793442.222,14.160,63.477,72.266,-93.262,-21.973
1678793442.226,16.113,62.012,73.242,-5.371,1.953
1678793442.230,20.020,52.734,59.082,96.191,94.238
1678793442.234,14.648,43.945,45.898,69.824,69.336
1678793442.238,39.062,51.758,62.988,-27.832,27.832
1678793442.242,35.645,55.664,74.707,-93.750,0.977
1678793442.246,0.000,55.176,68.848,-31.250,15.137
1678793442.250,-11.719,42.969,58.594,76.660,31.738
1678793442.254,16.602,31.250,48.828,89.355,45.898
1678793442.258,39.551,41.992,57.617,-3.418,-13.672
1678793442.261,11.719,52.246,63.965,-100.586,-9.277
1678793442.265,-10.254,46.875,56.641,-65.918,18.555
1678793442.269,6.348,35.156,51.270,59.082,-6.836
1678793442.273,22.949,28.320,48.340,106.934,-2.441
1678793442.277,10.742,30.273,45.410,18.066,25.879
1678793442.281,9.766,36.621,55.664,-82.520,70.312
1678793442.285,-5.859,34.668,59.570,-58.105,51.270
1678793442.289,-17.090,25.879,46.387,57.129,51.270
1678793442.293,17.090,20.996,43.945,108.887,83.496
1678793442.297,29.785,26.367,49.805,24.902,84.473
1678793442.301,7.812,30.762,58.594,-77.637,65.430
1678793442.304,-22.461,30.762,66.895,-73.242,44.434
1678793442.308,-24.902,35.156,65.430,31.250,21.484
1678793442.312,-8.789,26.367,49.805,98.145,16.602
1678793442.316,24.414,26.855,58.105,54.688,19.531
1678793442.320,51.270,43.457,83.984,-39.062,61.035
1678793442.324,1.465,43.945,74.707,-78.125,11.719
1678793442.328,-28.809,34.668,54.199,7.812,-32.227
1678793442.332,18.555,35.156,57.129,106.445,-11.719
1678793442.336,34.180,37.598,58.105,57.617,33.203
1678793442.340,20.020,48.340,62.988,-55.176,52.246
1678793442.344,-1.953,55.664,74.707,-78.125,-21.484
1678793442.347,-22.461,44.434,64.453,15.137,-25.391
1678793442.351,0.000,39.062,52.734,109.375,-4.883
1678793442.355,14.160,36.621,52.734,70.801,-36.133
1678793442.359,12.207,42.969,68.848,-38.086,-10.742
1678793442.363,6.348,52.246,78.613,-80.566,32.715
1678793442.367,-11.719,42.969,62.988,-9.766,54.199
1678793442.371,-11.719,24.414,44.922,75.195,90.332
1678793442.375,0.488,20.996,41.016,55.664,49.316
1678793442.379,9.277,36.621,48.828,-53.223,26.855
1678793442.383,0.000,49.316,57.129,-116.211,26.855
1678793442.387,-20.020,46.387,60.059,-42.480,1.953
1678793442.390,-19.531,40.527,54.199,71.289,-17.578
1678793442.394,10.254,29.785,52.734,90.332,34.180
1678793442.398,32.227,30.762,64.941,-0.977,43.457
1678793442.402,9.766,51.270,64.941,-91.309,39.551
1678793442.406,-6.836,62.012,60.547,-41.016,12.207
1678793442.410,-0.488,45.898,54.199,81.055,-18.066
1678793442.414,20.020,36.133,34.180,87.891,6.836
1678793442.418,28.809,58.594,34.668,-20.508,41.504
1678793442.422,10.254,70.801,40.039,-125.000,54.688
1678793442.426,-18.066,64.453,46.387,-94.727,66.406
1678793442.430,-15.625,56.152,48.828,38.574,98.145
1678793442.433,19.531,55.664,41.992,95.215,79.102
1678793442.437,30.273,60.547,46.875,8.789,45.898
1678793442.441,22.949,69.336,60.059,-95.703,57.129
1678793442.445,10.742,76.660,64.453,-72.266,15.137
1678793442.449,6.836,68.848,55.176,46.387,28.320
1678793442.453,40.527,59.570,51.270,117.188,59.570
1678793442.457,41.992,56.152,42.969,43.457,46.387
1678793442.461,23.438,60.059,45.898,-82.031,32.715
1678793442.465,4.395,62.500,59.082,-90.332,-7.812
1678793442.469,-15.625,57.617,49.316,11.719,17.090
1678793442.473,12.207,49.805,42.480,103.027,50.781
1678793442.476,37.598,52.246,46.387,62.988,-4.883
1678793442.480,27.832,65.430,53.223,-61.035,-11.719
1678793442.484,-0.488,69.824,62.012,-78.613,31.250
1678793442.488,-4.395,68.359,58.594,23.438,6.836
1678793442.492,16.602,60.059,48.340,104.492,-36.621
1678793442.496,51.270,57.617,55.664,87.891,-8.789
1678793442.500,53.711,65.918,66.895,-22.461,34.668
1678793442.504,5.859,69.824,59.570,-80.566,55.664
1678793442.508,-0.977,60.059,55.176,16.113,71.777
1678793442.512,6.836,45.898,50.781,122.559,79.102
1678793442.516,22.461,37.598,49.316,98.145,38.574
1678793442.519,31.250,38.574,55.664,-22.461,31.250
1678793442.523,6.836,47.852,62.988,-79.102,25.391
1678793442.527,-7.812,49.805,64.941,-3.906,-0.977
1678793442.531,-8.301,40.039,50.781,96.191,68.359
1678793442.535,20.020,34.668,47.852,104.004,26.367
1678793442.539,35.645,38.086,59.082,-2.930,-28.809
1678793442.543,31.250,43.457,76.172,-72.754,58.594
1678793442.547,3.418,41.016,65.430,-33.691,47.852
1678793442.551,-0.977,32.715,39.551,67.383,-19.043
1678793442.555,23.438,30.273,42.480,99.121,29.785
1678793442.559,24.902,35.645,52.246,-4.395,30.762
1678793442.562,1.953,41.504,57.617,-91.309,13.184
1678793442.566,-9.766,44.434,61.523,-39.551,-3.418
1678793442.570,0.488,38.086,57.129,70.312,-19.043
1678793442.574,20.508,32.227,44.922,104.980,23.926
1678793442.578,32.227,43.457,48.828,22.461,34.180
1678793442.582,9.277,52.246,56.641,-90.332,81.543
1678793442.586,3.906,57.129,73.730,-50.781,80.078
1678793442.590,-0.488,47.363,67.871,83.496,14.648
1678793442.594,-6.348,30.273,41.504,108.398,0.977
1678793442.598,18.555,37.598,48.828,19.531,-52.246
1678793442.601,23.438,56.152,67.871,-70.801,-19.043
1678793442.605,-0.488,62.500,70.312,-68.359,64.453
1678793442.609,-13.184,48.340,56.152,37.109,62.012
1678793442.613,10.742,36.621,49.316,111.816,-4.395
1678793442.617,21.973,40.039,55.664,55.176,0.000
1678793442.621,10.254,46.875,65.430,-63.477,50.781
1678793442.625,12.207,55.176,71.777,-76.660,22.949
1678793442.629,10.742,51.758,60.547,36.621,-18.555
1678793442.633,31.250,48.828,60.547,130.371,-30.273
1678793442.637,38.086,49.316,63.477,83.008,-13.184
1678793442.641,19.531,57.129,60.547,-52.246,36.621
1678793442.644,13.672,66.895,70.312,-83.984,-5.859
1678793442.648,2.930,58.594,72.266,25.879,16.602
1678793442.652,15.625,49.805,59.570,120.605,51.270
1678793442.656,30.762,50.293,55.176,89.355,1.465
1678793442.660,35.156,58.105,61.523,-17.578,0.000
1678793442.664,12.695,65.918,65.918,-61.523,7.324
1678793442.668,-16.113,68.359,65.918,17.578,26.855
1678793442.672,-4.395,65.430,53.223,115.723,13.672
1678793442.676,43.457,62.988,55.176,114.746,-6.348
1678793442.680,46.387,65.430,62.500,2.930,39.551
1678793442.684,11.230,68.359,67.383,-81.055,38.574
1678793442.687,0.000,68.359,69.336,-7.812,0.977
1678793442.691,-0.977,65.430,53.223,102.051,1.953
1678793442.695,36.133,72.754,51.270,115.723,11.230
1678793442.699,49.805,81.055,61.523,6.836,-32.227
1678793442.703,10.254,82.031,68.359,-87.402,9.277
1678793442.707,-13.672,83.496,67.871,-29.297,46.387
1678793442.711,-4.883,74.219,60.547,82.520,9.766
1678793442.715,14.648,64.453,57.617,108.398,22.461
1678793442.719,18.066,71.777,64.941,10.742,22.949
1678793442.723,21.973,85.938,86.426,-70.312,26.367
1678793442.727,-1.953,77.148,77.637,-44.922,15.137
1678793442.731,-13.672,58.594,50.293,50.293,31.738
1678793442.734,31.250,62.988,51.270,98.145,16.113
1678793442.738,51.758,72.754,61.035,13.184,-12.695
1678793442.742,40.039,81.543,77.148,-76.172,-17.090
1678793442.746,11.230,82.520,76.660,-60.059,0.488
1678793442.750,-2.930,77.637,57.617,50.781,42.480
1678793442.754,11.719,70.801,50.293,116.211,49.805
1678793442.758,29.785,71.289,60.059,37.598,10.254
1678793442.762,28.809,75.684,70.312,-72.754,19.043
1678793442.766,22.461,75.684,78.613,-57.129,37.109
1678793442.770,15.137,65.918,75.684,60.059,22.949
1678793442.774,3.418,46.387,50.293,109.375,48.340
1678793442.778,14.648,48.340,45.898,53.223,67.383
1678793442.781,16.113,64.453,61.035,-57.617,66.406
1678793442.785,4.883,68.848,66.895,-67.871,60.059
1678793442.789,7.812,58.105,60.059,45.898,66.895
1678793442.793,10.254,38.574,51.270,109.375,57.129
1678793442.797,4.883,35.156,48.828,59.570,62.988
1678793442.801,10.254,47.852,68.359,-36.133,53.223
1678793442.805,-14.648,56.152,76.660,-70.312,13.672
1678793442.809,-30.762,44.434,62.500,8.301,41.504
1678793442.813,4.883,30.273,58.105,113.770,40.039
1678793442.817,20.508,26.367,52.246,82.520,40.527
1678793442.821,10.742,33.691,60.547,-42.969,91.797
1678793442.824,-6.836,42.969,69.824,-88.867,84.473
1678793442.828,-13.184,38.574,63.477,-18.066,48.340
1678793442.832,14.648,28.809,54.688,83.984,9.766
1678793442.836,41.992,28.809,60.059,94.727,-0.488
1678793442.840,44.922,41.504,72.754,-22.949,20.508
1678793442.844,28.809,47.363,81.543,-86.426,19.531
1678793442.848,1.953,47.363,81.055,-11.230,17.578
1678793442.852,-2.930,42.480,66.406,91.797,25.391
1678793442.856,18.066,36.621,63.477,119.141,43.945
1678793442.860,30.273,41.992,70.801,4.395,-4.395
1678793442.864,8.789,50.781,69.336,-97.168,-65.430
1678793442.868,-18.066,51.758,63.477,-47.852,-28.320
1678793442.871,-14.648,46.875,55.664,69.824,24.414
1678793442.875,19.531,48.828,54.199,105.957,11.230
1678793442.879,37.109,57.129,63.965,6.836,19.531
1678793442.883,22.949,67.871,79.102,-82.031,23.926
1678793442.887,-1.465,68.359,80.566,-49.316,10.254
1678793442.891,-12.695,58.105,69.824,66.895,15.625
1678793442.895,5.371,55.664,61.035,123.535,37.109
1678793442.899,27.344,57.617,62.500,29.297,46.387
1678793442.903,33.203,61.523,78.613,-69.824,0.977
1678793442.907,-5.859,61.035,76.660,-52.734,5.371
1678793442.911,-34.180,42.480,50.781,32.227,22.461
1678793442.914,-16.602,31.250,40.039,82.031,-29.297
1678793442.918,6.836,41.992,52.734,14.160,-54.199
1678793442.922,12.207,53.223,64.941,-89.355,5.371
1678793442.926,-27.344,49.805,67.383,-83.496,50.293
1678793442.930,-31.250,50.293,62.500,26.855,58.105
1678793442.934,-4.395,53.223,51.758,101.074,4.395
1678793442.938,11.719,49.316,47.852,35.645,-17.578
1678793442.942,1.465,57.129,54.688,-84.961,25.879
1678793442.946,-23.926,65.918,69.336,-95.703,46.387
1678793442.950,-20.508,65.918,74.707,16.113,59.570
1678793442.953,-19.043,58.594,52.246,91.309,49.805
1678793442.957,-0.488,55.176,43.457,45.410,62.988
1678793442.961,27.832,71.777,62.012,-42.969,73.242
1678793442.965,2.930,83.496,70.801,-71.289,-0.977
1678793442.969,-26.367,72.754,59.570,-4.395,-37.598
1678793442.973,-17.090,61.035,50.781,91.797,18.555
1678793442.977,13.184,60.547,50.781,80.078,89.355
1678793442.981,24.902,71.777,60.547,-34.180,63.477
1678793442.985,14.648,83.984,71.777,-85.938,3.906
1678793442.989,-10.742,75.684,63.965,-19.531,-3.418
1678793442.992,-10.254,65.918,55.664,102.051,71.289
1678793442.996,25.391,67.383,57.129,122.070,80.078
1678793443.000,12.695,66.895,51.758,-18.066,46.387
1678793443.004,-16.113,72.266,57.129,-100.098,23.926
1678793443.008,-14.648,80.566,64.453,-32.227,-24.902
1678793443.012,-4.395,77.637,52.246,83.496,-44.434
1678793443.016,8.301,79.102,49.805,104.004,-2.930
1678793443.020,33.691,93.262,69.336,-1.465,10.742
1678793443.024,35.645,108.887,86.914,-74.707,39.062
1678793443.028,6.836,104.980,85.938,-37.598,42.480
1678793443.032,1.953,91.797,68.848,70.312,31.250
1678793443.035,32.715,83.984,59.570,119.141,85.938
1678793443.039,63.965,89.844,74.219,44.434,39.062
1678793443.043,25.391,93.750,70.312,-87.891,-26.855
1678793443.047,-31.738,91.797,71.289,-92.285,-15.625
1678793443.051,-26.855,83.008,70.801,36.621,1.465
1678793443.055,-10.742,65.430,60.059,93.262,-17.578
1678793443.059,-13.184,66.895,66.406,16.113,43.457
1678793443.063,-12.695,83.008,73.730,-84.961,92.285
1678793443.067,-17.090,91.797,81.055,-73.730,46.875
1678793443.071,-12.207,87.891,77.148,44.434,63.477
1678793443.074,11.719,80.078,59.082,107.422,51.270
1678793443.078,30.273,75.195,56.152,31.738,18.555
1678793443.082,41.992,83.984,78.125,-63.477,-3.418
1678793443.086,18.555,88.867,85.449,-77.637,-6.836
1678793443.090,-22.949,78.613,63.477,0.977,4.395
1678793443.094,-2.441,75.684,53.223,94.238,-22.949
1678793443.098,14.648,72.754,51.758,55.664,-2.930
1678793443.102,12.695,82.520,61.523,-68.359,64.453
1678793443.106,3.906,93.262,71.777,-104.980,77.637
1678793443.110,1.465,89.844,68.848,-1.465,66.895
1678793443.114,12.207,82.520,67.383,101.562,38.086
1678793443.118,44.434,81.543,72.754,79.590,22.461
1678793443.121,44.922,86.914,81.055,-32.227,-20.996
1678793443.125,18.555,91.309,89.355,-78.125,-19.531
1678793443.129,7.812,92.285,86.426,19.043,78.613
1678793443.133,-4.395,78.613,64.941,103.516,115.234
1678793443.137,25.391,70.312,61.035,86.426,51.270
1678793443.141,44.922,78.613,76.660,-7.324,61.523
1678793443.145,9.277,82.520,87.891,-74.219,100.586
1678793443.149,-17.090,75.195,81.543,-14.160,93.750
1678793443.153,5.859,66.406,77.148,100.586,123.047
1678793443.157,40.039,61.035,74.707,108.398,129.883
1678793443.161,43.457,67.383,77.637,0.000,55.176
1678793443.164,27.344,84.473,95.703,-74.707,-36.133
1678793443.168,-5.859,82.520,87.891,-30.273,25.391
1678793443.172,2.930,69.336,75.195,80.078,74.219
1678793443.176,35.156,65.918,65.918,98.633,22.461
1678793443.180,40.527,66.406,71.777,20.996,19.531
1678793443.184,28.320,76.660,90.820,-68.848,60.547
1678793443.188,7.812,81.543,91.309,-56.641,67.871
1678793443.192,24.902,75.195,82.031,75.684,48.340
1678793443.196,63.965,75.684,78.125,121.582,13.184
1678793443.200,65.430,82.031,83.496,25.391,13.184
1678793443.204,33.203,90.820,93.262,-71.289,62.500
1678793443.208,4.883,91.797,93.262,-46.875,24.902
1678793443.211,9.766,84.473,92.773,78.125,9.277
1678793443.215,34.668,77.637,94.238,138.672,-20.020
1678793443.219,70.312,82.520,106.445,83.496,2.930
1678793443.223,61.523,89.355,109.863,-34.668,59.082
1678793443.227,19.043,87.402,99.121,-54.688,58.594
1678793443.231,15.137,88.379,99.121,64.453,80.078
1678793443.235,44.434,94.727,97.656,143.066,58.105
1678793443.239,84.473,108.398,108.398,111.816,-23.438
1678793443.243,98.633,123.535,128.906,2.441,-20.020
1678793443.247,83.984,131.348,137.695,-17.578,22.461
1678793443.250,76.172,133.789,132.324,84.961,40.527
1678793443.254,102.051,137.695,128.906,175.293,-0.977
1678793443.258,131.348,140.625,134.766,150.879,-42.969
1678793443.262,132.324,156.250,156.738,55.664,5.371
1678793443.266,97.168,171.387,166.504,7.812,-5.859
1678793443.270,73.730,162.598,150.879,68.359,-20.508
1678793443.274,96.191,160.156,151.367,195.801,10.254
1678793443.278,119.629,163.574,160.156,192.871,23.926
1678793443.282,142.578,179.688,179.199,75.195,16.113
1678793443.286,136.230,192.871,197.266,32.227,-17.578
1678793443.289,122.070,184.570,196.289,103.516,7.812
1678793443.293,128.906,176.758,188.965,203.125,23.926
1678793443.297,140.625,175.781,185.059,215.332,-15.137
1678793443.301,155.273,191.895,199.707,119.141,-9.766
1678793443.305,151.855,209.961,216.309,56.152,14.648
1678793443.309,134.277,204.590,213.379,110.840,25.391
1678793443.313,133.789,189.453,200.195,210.449,22.461
1678793443.317,134.766,177.246,177.734,225.098,11.719
1678793443.321,139.160,180.176,178.223,104.980,9.277
1678793443.325,134.277,188.965,196.777,20.508,-10.254
1678793443.328,119.141,189.941,198.242,70.801,-5.859
1678793443.332,120.117,185.547,183.105,175.781,40.039
1678793443.336,134.766,181.152,174.316,221.191,58.594
1678793443.340,155.762,181.641,177.734,133.789,21.484
1678793443.344,135.254,191.895,187.012,43.945,74.219
1678793443.348,96.191,196.777,194.336,77.148,120.117
1678793443.352,116.211,192.383,196.777,190.430,62.500
1678793443.356,132.324,181.152,181.641,224.609,12.207
1678793443.360,126.953,176.758,165.039,123.535,38.574
1678793443.364,134.766,186.035,177.734,27.832,36.621
1678793443.368,106.445,191.406,179.199,36.133,27.344
1678793443.372,78.613,187.500,162.109,132.324,80.566
1678793443.375,101.562,181.152,155.273,201.660,53.711
1678793443.379,127.441,183.594,156.738,126.953,-3.906
1678793443.383,113.770,188.477,160.156,11.230,-21.484
1678793443.387,86.914,192.383,162.598,-5.371,39.551
1678793443.391,73.242,187.012,153.320,83.008,32.715
1678793443.395,98.633,172.852,139.160,166.016,16.113
1678793443.399,122.070,171.875,143.555,114.258,47.363
1678793443.403,81.543,175.781,149.414,-6.348,6.836
1678793443.407,51.758,176.758,148.438,-45.898,2.930
1678793443.411,52.734,170.898,139.648,45.410,-5.371
1678793443.414,71.289,157.227,121.582,150.879,43.457
1678793443.418,110.352,151.367,118.164,134.766,105.469
1678793443.422,110.840,149.902,135.742,24.902,34.180
1678793443.426,67.871,148.438,140.625,-49.805,13.184
1678793443.430,47.363,139.648,132.324,12.695,-5.859
1678793443.434,62.500,126.953,122.070,135.742,-21.973
1678793443.438,78.613,124.023,115.723,124.023,35.156
1678793443.442,84.961,131.348,131.836,11.230,-17.578
1678793443.446,80.566,137.207,143.555,-41.016,-50.781
1678793443.450,41.016,127.930,118.164,-7.324,-42.480
1678793443.454,22.949,113.281,88.867,78.613,-24.414
1678793443.457,42.480,107.910,85.449,106.934,70.312
1678793443.461,52.246,118.164,102.539,12.695,112.305
1678793443.465,43.945,132.812,120.117,-62.500,57.617
1678793443.469,27.832,134.766,118.652,-11.230,27.832
1678793443.473,39.062,124.512,105.957,106.445,38.086
1678793443.477,67.871,119.629,101.562,144.043,7.324
1678793443.481,86.914,129.395,106.934,47.363,28.320
1678793443.485,75.684,142.578,117.188,-44.434,-15.625
1678793443.489,42.480,142.578,122.070,-16.602,-47.852
1678793443.493,43.945,132.324,109.375,91.797,-15.625
1678793443.497,65.918,124.512,97.168,137.207,23.438
1678793443.501,76.172,123.047,102.051,35.156,60.547
1678793443.504,58.105,127.441,108.398,-67.383,63.477
1678793443.508,52.734,131.836,109.375,-45.898,34.180
1678793443.512,37.598,120.605,99.121,62.500,78.613
1678793443.516,24.902,109.863,92.773,121.582,83.008
1678793443.520,58.105,114.258,98.145,56.641,-14.160
1678793443.524,61.035,121.582,106.934,-41.992,13.672
1678793443.528,25.391,120.605,106.445,-43.945,71.777
1678793443.532,25.391,110.352,102.051,80.566,82.520
1678793443.536,46.875,97.656,91.797,161.621,51.270
1678793443.540,45.410,92.773,76.660,77.637,40.527
1678793443.544,59.082,105.469,89.844,-32.227,25.391
1678793443.547,39.551,117.676,96.191,-48.828,-16.113
1678793443.551,11.230,110.840,83.984,54.688,-12.695
1678793443.555,23.926,98.633,76.660,138.672,48.340
1678793443.559,41.992,101.074,78.125,96.191,109.863
1678793443.563,41.504,108.398,90.332,-9.277,62.988
1678793443.567,27.344,109.375,99.609,-48.340,40.039
1678793443.571,21.484,101.074,86.914,42.969,1.465
1678793443.575,15.625,85.938,65.918,129.883,11.230
1678793443.579,28.809,78.613,62.500,90.332,90.332
1678793443.583,33.203,83.008,66.895,-26.367,64.453
1678793443.587,30.762,89.844,76.660,-65.918,15.625
1678793443.590,9.277,77.637,67.383,-2.441,7.812
1678793443.594,-10.254,56.641,43.945,92.773,59.570
1678793443.598,10.742,52.734,42.969,89.355,43.945
1678793443.602,17.090,61.523,53.223,-24.902,35.645
1678793443.606,-5.859,68.359,60.547,-88.379,91.309
1678793443.610,-8.789,70.312,63.965,-9.766,54.688
1678793443.614,-1.953,61.035,52.734,86.914,0.488
1678793443.618,-5.859,47.852,45.898,96.680,17.090
1678793443.622,10.254,54.199,54.688,14.648,45.898
1678793443.626,18.066,71.777,74.707,-69.824,14.160
1678793443.630,-4.883,68.359,66.406,-48.340,-35.645
1678793443.633,-18.555,52.734,43.457,49.316,18.555
1678793443.637,0.977,53.711,43.457,104.980,54.199
1678793443.641,10.742,62.500,50.781,26.367,80.566
1678793443.645,5.859,71.777,64.941,-96.680,11.230
1678793443.649,-13.672,69.824,65.430,-69.336,24.414
1678793443.653,-21.973,58.105,53.223,60.547,62.012
1678793443.657,-0.488,52.246,47.852,111.816,-6.348
1678793443.661,16.113,54.688,50.781,29.785,2.930
1678793443.665,-2.441,61.035,59.570,-68.848,51.758
1678793443.669,-6.836,63.477,73.242,-42.969,26.855
1678793443.673,-19.531,54.199,58.594,48.340,-24.414
1678793443.676,-10.254,41.504,39.062,108.887,0.000
1678793443.680,24.414,42.969,49.316,49.316,15.625
1678793443.684,9.277,52.246,55.176,-85.938,21.484
1678793443.688,-22.461,53.223,55.176,-89.355,47.852
1678793443.692,-43.457,40.039,40.039,6.348,82.031
1678793443.696,-33.691,27.832,28.320,81.055,74.707
1678793443.700,-7.812,24.414,29.785,77.148,24.414
1678793443.704,-9.766,31.250,38.086,-69.824,16.602
1678793443.708,-53.711,32.715,39.551,-147.949,6.836
1678793443.712,-41.992,29.785,36.133,-16.113,46.875
1678793443.716,-12.207,24.414,29.785,83.496,69.824
1678793443.719,-19.531,20.508,10.254,16.113,20.508
1678793443.723,-25.391,29.785,20.996,-98.633,5.859
1678793443.727,-37.598,40.039,38.086,-113.770,68.359
1678793443.731,-50.781,37.598,25.391,-26.367,130.859
1678793443.735,-45.898,28.320,16.602,71.777,55.664
1678793443.739,-22.949,24.414,14.160,55.176,39.062
1678793443.743,-7.812,34.668,26.367,-47.363,45.898
1678793443.747,-22.461,40.527,36.621,-106.445,-26.367
1678793443.751,-38.086,28.809,25.879,-43.945,-11.719
1678793443.755,-38.086,20.508,17.578,71.289,-1.465
1678793443.759,-3.906,22.461,23.438,86.914,-53.711
1678793443.762,6.348,25.879,23.926,-30.273,0.488
1678793443.766,-37.109,33.203,20.020,-122.070,21.484
1678793443.770,-34.668,39.551,25.391,-59.082,-7.324
1678793443.774,-9.277,27.344,19.531,65.430,22.949
1678793443.778,-18.555,16.602,8.789,97.168,11.230
1678793443.782,-21.973,22.461,9.277,-29.297,32.715
1678793443.786,-12.695,36.621,30.762,-124.023,-2.441
1678793443.790,-35.645,36.621,35.645,-74.707,-17.578
1678793443.794,-43.945,26.367,22.461,40.039,41.504
1678793443.798,-16.113,19.043,14.160,67.383,27.832
1678793443.801,10.742,29.297,29.785,3.418,44.434
1678793443.805,3.906,42.969,52.734,-68.848,44.922
1678793443.809,-34.180,40.527,43.457,-92.285,11.719
1678793443.813,-37.109,30.273,32.715,28.320,72.754
1678793443.817,9.277,28.809,33.203,83.984,61.523
1678793443.821,33.203,41.992,39.551,11.230,-15.625
1678793443.825,2.930,47.363,42.480,-88.867,-14.648
1678793443.829,-22.949,46.387,43.457,-95.215,20.996
1678793443.833,-27.832,37.598,34.180,16.113,18.555
1678793443.837,-13.672,32.227,21.973,64.941,7.324
1678793443.841,13.184,35.156,30.762,29.785,48.828
1678793443.844,7.812,44.922,39.062,-80.078,20.996
1678793443.848,-16.602,56.152,38.574,-110.352,32.715
1678793443.852,-37.109,41.504,28.809,-4.883,44.922
1678793443.856,-23.438,31.250,12.695,72.754,-7.812
1678793443.860,10.742,36.621,16.113,31.250,2.930
1678793443.864,2.930,47.363,26.367,-75.684,39.062
1678793443.868,-20.508,55.176,33.691,-105.957,5.371
1678793443.872,-21.973,49.316,31.250,-25.879,7.812
1678793443.876,-4.883,46.875,23.926,81.055,-4.395
1678793443.880,26.855,46.387,26.855,74.707,0.977
1678793443.883,31.250,53.711,39.062,-44.434,28.809
1678793443.887,18.066,66.895,47.363,-107.422,5.371
1678793443.891,-0.977,58.594,41.992,-32.715,91.309
1678793443.895,21.484,56.641,39.551,78.613,97.656
1678793443.899,19.531,52.246,24.902,68.848,72.754
1678793443.903,-7.324,47.852,22.461,-49.316,26.367
1678793443.907,-9.766,63.965,37.598,-135.254,9.766
1678793443.911,-24.414,70.801,42.969,-56.641,7.812
1678793443.915,-15.137,71.289,41.504,72.266,-13.184
1678793443.919,20.996,72.266,33.691,62.012,30.273
1678793443.923,40.039,83.008,38.574,-36.621,-24.902
1678793443.926,12.695,92.773,44.922,-117.188,27.832
1678793443.930,-12.695,92.285,47.363,-61.523,56.152
1678793443.934,-10.742,89.844,39.062,49.316,27.832
1678793443.938,26.367,87.891,40.039,72.266,61.035
1678793443.942,31.250,96.191,45.410,-28.809,31.250
1678793443.946,-6.836,113.281,43.457,-123.535,1.953
1678793443.950,-26.367,115.234,41.992,-81.543,-14.648
1678793443.954,-25.391,105.957,33.203,12.207,13.184
1678793443.958,6.836,112.793,34.180,68.359,50.781
1678793443.962,32.227,125.977,47.363,0.977,8.789
1678793443.966,16.113,129.395,51.270,-117.676,6.836
1678793443.969,-11.230,127.930,49.805,-115.723,-17.578
1678793443.973,-7.324,126.953,39.062,-1.465,4.395
1678793443.977,10.254,126.953,25.879,64.941,35.645
1678793443.981,45.410,137.695,37.598,24.414,11.230
1678793443.985,48.340,156.250,57.129,-102.051,18.066
1678793443.989,-8.301,156.738,46.387,-145.020,-10.742
1678793443.993,-38.086,146.973,30.273,-31.250,13.184
1678793443.997,-17.578,146.484,29.785,57.617,36.133
1678793444.001,9.766,154.297,30.762,-3.418,23.438
1678793444.005,24.414,168.457,39.551,-112.305,22.461
1678793444.008,3.906,172.363,56.152,-110.352,-7.812
1678793444.012,-35.645,160.156,43.457,-13.672,34.180
1678793444.016,-18.555,145.996,24.902,62.988,63.477
1678793444.020,13.184,151.855,26.367,23.438,45.898
1678793444.024,12.695,170.898,34.180,-94.238,69.336
1678793444.028,9.277,179.688,53.223,-108.887,54.199
1678793444.032,-16.602,164.062,47.852,-25.879,19.531
1678793444.036,-20.508,153.320,28.809,62.500,59.570
1678793444.040,12.207,151.367,31.250,60.547,56.152
1678793444.044,7.812,142.578,36.133,-65.430,27.832
1678793444.048,-10.254,144.043,43.945,-122.070,26.855
1678793444.051,-20.020,143.066,41.504,-38.086,38.086
1678793444.055,-10.254,135.742,33.691,61.035,43.457
1678793444.059,4.395,124.023,24.902,45.410,20.508
1678793444.063,12.207,125.488,32.227,-50.293,48.340
1678793444.067,-17.578,128.906,47.363,-117.676,97.656
1678793444.071,-25.391,126.953,52.734,-53.711,48.828
1678793444.075,1.953,124.023,47.363,72.266,31.250
1678793444.079,4.883,111.328,26.367,64.453,24.902
1678793444.083,17.578,114.258,29.297,-32.715,8.789
1678793444.087,7.812,127.441,49.805,-103.516,7.324
1678793444.090,-33.691,120.605,48.828,-63.477,-18.555
1678793444.094,-18.555,106.934,40.039,54.688,12.207
1678793444.098,19.043,97.656,37.109,92.285,33.691
1678793444.102,24.414,95.703,43.457,-1.465,1.465
1678793444.106,-0.977,89.844,49.805,-96.191,-8.789
1678793444.110,-28.809,77.148,47.363,-81.543,5.371
1678793444.114,-23.438,64.453,36.621,10.254,44.434
1678793444.118,17.578,59.570,39.551,85.938,43.457
1678793444.122,29.785,57.129,41.504,14.648,-29.785
1678793444.126,-11.719,57.617,36.133,-118.164,-18.066
1678793444.130,-25.879,71.777,46.875,-106.934,22.949
1678793444.133,-18.555,67.383,41.504,19.531,22.949
1678793444.137,-5.371,44.922,30.273,83.008,29.297
1678793444.141,2.441,37.598,34.180,13.184,22.949
1678793444.145,-7.812,47.363,49.316,-82.520,64.941
1678793444.149,-18.555,54.688,63.965,-92.773,43.457
1678793444.153,-37.109,46.875,49.805,-1.465,21.973
1678793444.157,-33.203,38.574,35.645,80.078,38.574
1678793444.161,0.977,43.457,46.387,53.223,34.180
1678793444.165,22.461,63.477,69.336,-38.574,67.383
1678793444.169,-19.043,62.988,63.477,-103.027,55.176
1678793444.172,-34.180,42.969,51.758,-32.715,-6.836
1678793444.176,-3.418,33.691,50.293,76.660,22.949
1678793444.180,16.602,29.785,47.363,53.223,44.922
1678793444.184,11.230,34.180,56.641,-60.059,-13.672
1678793444.188,-25.879,36.133,62.012,-99.609,-19.531
1678793444.192,-51.270,19.531,55.664,-29.297,-1.953
1678793444.196,-20.996,15.137,47.852,74.219,-40.039
1678793444.200,6.348,20.508,42.480,72.754,-7.812
1678793444.204,7.812,30.273,40.039,-47.852,57.129
1678793444.208,8.789,41.992,59.082,-100.098,57.129
1678793444.211,-20.996,32.227,59.570,-35.156,101.562
1678793444.215,-20.020,13.672,34.668,56.152,93.262
1678793444.219,2.441,12.207,34.668,62.500,-3.906
1678793444.223,5.371,22.461,47.852,-40.039,17.578
1678793444.227,6.348,28.809,57.617,-105.469,48.828
1678793444.231,0.977,22.949,55.664,-66.895,24.414
1678793444.235,-4.395,12.695,41.016,32.227,26.367
1678793444.239,8.789,9.766,32.715,84.961,9.766
1678793444.243,41.992,24.902,45.898,11.719,18.066
1678793444.247,14.160,34.668,51.270,-108.398,23.926
1678793444.251,-12.207,32.227,49.316,-73.730,59.570
1678793444.254,20.996,29.785,54.688,71.289,116.699
1678793444.258,31.250,18.066,38.086,84.961,63.965
1678793444.262,8.789,19.043,30.762,-18.555,0.000
1678793444.266,-18.555,29.297,41.992,-111.328,30.762
1678793444.270,-53.223,25.391,45.410,-99.609,21.973
1678793444.274,-54.688,18.555,35.645,15.625,75.195
1678793444.278,-12.695,18.555,27.832,90.332,34.180
1678793444.282,23.438,24.414,40.039,34.180,-62.500
1678793444.286,15.625,32.715,52.246,-79.102,-56.641
1678793444.290,-2.930,44.434,56.152,-83.008,-15.137
1678793444.293,-18.066,39.062,38.574,14.160,-29.785
1678793444.297,-16.602,25.879,27.344,87.891,-69.824
1678793444.301,13.184,23.438,32.227,22.461,-13.184
1678793444.305,-5.371,28.809,30.762,-106.934,36.621
1678793444.309,-29.297,37.598,41.504,-123.047,49.316
1678793444.313,-22.461,33.691,38.086,-16.113,-4.395
1678793444.317,-14.648,25.879,25.879,83.984,10.742
1678793444.321,5.371,25.391,30.762,41.504,7.812
1678793444.325,8.301,28.320,36.133,-66.406,-4.883
1678793444.329,-4.883,31.250,42.969,-115.723,9.277
1678793444.332,7.812,31.250,42.969,-30.762,-63.965
1678793444.336,-6.836,17.090,32.227,81.055,-70.312
1678793444.340,4.395,13.184,34.180,54.688,0.488
1678793444.344,21.484,24.414,47.363,-47.363,20.020
1678793444.348,-20.508,22.461,42.480,-119.141,77.148
1678793444.352,-38.086,21.973,27.832,-56.641,107.910
1678793444.356,-12.695,15.625,18.066,62.500,104.492
1678793444.360,5.859,2.930,13.184,62.988,64.453
1678793444.364,21.973,10.742,27.832,-40.527,37.598
1678793444.368,5.859,21.484,45.898,-116.699,52.246
1678793444.371,-21.973,18.066,37.109,-73.242,23.438
1678793444.375,-15.625,12.695,25.391,40.527,19.043
1678793444.379,3.906,12.207,29.785,63.965,8.301
1678793444.383,21.484,19.531,35.156,-26.367,-8.789
1678793444.387,13.184,33.691,48.828,-95.703,1.465
1678793444.391,-13.672,35.645,46.875,-52.734,-43.457
1678793444.395,-31.250,18.066,22.461,47.852,55.664
1678793444.399,4.395,9.277,25.391,73.730,63.965
1678793444.403,23.926,15.625,29.297,-14.160,-20.508
1678793444.407,5.371,23.438,43.457,-134.766,31.250
1678793444.410,-19.531,26.855,51.270,-121.582,47.852
1678793444.414,-29.297,20.508,37.109,1.465,38.086
1678793444.418,-10.742,14.648,38.086,54.688,54.688
1678793444.422,1.953,17.578,43.945,-21.973,66.895
1678793444.426,-18.555,24.414,46.387,-149.414,31.250
1678793444.430,-20.020,30.273,53.711,-130.859,41.504
1678793444.434,-20.996,20.508,47.852,11.719,103.027
1678793444.438,-33.203,4.883,25.391,35.645,84.961
1678793444.442,-18.555,8.789,19.043,-27.832,-0.977
1678793444.446,-7.324,29.785,32.715,-104.492,-5.371
1678793444.450,-22.949,39.062,44.922,-124.512,2.441
1678793444.453,-37.598,32.715,38.574,-23.926,44.434
1678793444.457,-12.695,26.367,27.344,67.871,59.082
1678793444.461,19.043,24.414,24.414,20.020,23.438
1678793444.465,15.137,29.297,34.668,-107.910,49.805
1678793444.469,-9.277,33.203,45.898,-125.488,13.184
1678793444.473,-33.203,27.344,38.086,-21.973,35.156
1678793444.477,-3.418,22.949,46.387,84.961,32.227
1678793444.481,21.973,19.531,41.016,40.039,-18.555
1678793444.485,-9.277,22.461,29.785,-102.051,8.301
1678793444.489,-15.625,36.621,45.410,-120.117,54.688
1678793444.493,-30.273,34.180,41.016,-36.621,10.254
1678793444.496,-28.320,27.832,27.832,61.035,-19.531
1678793444.500,5.371,29.785,29.785,45.410,12.207
1678793444.504,10.742,33.691,40.039,-55.176,38.086
1678793444.508,-0.977,38.574,51.758,-109.863,2.441
1678793444.512,-14.648,38.574,46.875,-47.363,-31.738
1678793444.516,-12.207,29.785,32.715,63.965,-34.668
1678793444.520,6.836,25.391,28.809,68.359,5.859
1678793444.524,22.949,38.086,41.016,-26.367,86.914
1678793444.528,0.488,44.922,40.039,-120.117,41.992
1678793444.532,-21.484,30.762,32.227,-82.031,11.230
1678793444.535,-20.996,19.043,27.344,40.527,54.199
1678793444.539,-11.719,11.230,16.113,72.754,52.246
1678793444.543,10.254,10.742,21.973,-31.250,-9.277
1678793444.547,1.465,19.531,39.062,-114.746,-12.695
1678793444.551,-27.832,21.973,39.062,-57.617,-30.273
1678793444.555,-14.160,17.090,24.414,26.855,-19.531
1678793444.559,20.996,13.672,19.531,72.266,14.648
1678793444.563,17.090,21.484,30.273,-10.254,61.035
1678793444.567,8.789,35.156,50.781,-113.770,81.543
1678793444.571,6.348,37.109,61.035,-76.660,38.086
1678793444.575,-15.625,22.949,37.598,4.883,14.160
1678793444.578,-20.020,11.719,17.578,38.574,28.809
1678793444.582,-0.488,13.184,23.926,-21.484,63.965
1678793444.586,0.488,22.461,38.574,-137.207,54.199
1678793444.590,-6.348,33.203,44.434,-129.395,-1.465
1678793444.594,-16.113,28.809,34.668,-7.324,-13.184
1678793444.598,-18.555,19.531,25.879,78.613,-2.441
1678793444.602,14.648,25.391,33.691,44.922,-50.293
1678793444.606,11.230,32.715,43.457,-83.008,-32.227
1678793444.610,-23.926,33.691,41.504,-104.004,48.828
1678793444.614,-22.949,30.273,38.086,19.531,10.254
1678793444.618,-5.859,20.996,22.461,105.957,44.434
1678793444.621,10.742,18.555,16.602,56.152,78.613
1678793444.625,14.648,23.438,32.715,-45.898,37.109
1678793444.629,-11.719,25.391,39.062,-73.730,37.598
1678793444.633,-29.297,20.996,30.762,1.953,36.621
1678793444.637,-4.395,17.578,28.320,113.281,29.297
1678793444.641,21.484,12.695,32.227,108.887,71.289
1678793444.645,19.043,21.484,36.621,0.000,87.402
1678793444.649,-6.348,38.574,37.598,-62.012,25.879
1678793444.653,-35.645,33.691,35.156,7.812,13.672
1678793444.657,-3.906,31.738,36.133,138.184,2.441
1678793444.661,22.949,38.574,34.180,127.930,18.066
1678793444.664,6.348,44.434,35.156,-10.254,39.551
1678793444.668,18.066,50.781,45.410,-65.918,51.270
1678793444.672,-8.789,47.363,39.062,-10.254,48.828
1678793444.676,-22.949,45.410,34.180,109.375,36.621
1678793444.680,0.488,40.039,32.715,125.977,40.039
1678793444.684,16.113,45.410,41.016,14.160,44.434
1678793444.688,16.113,61.035,51.758,-60.059,9.766
1678793444.692,-3.906,54.199,49.316,-25.879,14.648
1678793444.696,-16.113,37.109,36.621,74.219,20.996
1678793444.700,7.812,33.691,29.297,96.191,8.301
1678793444.704,44.922,45.898,46.387,17.578,60.547
1678793444.707,32.227,54.688,53.711,-72.266,45.410
1678793444.711,-9.277,54.688,46.875,-56.152,10.742
1678793444.715,-29.297,41.992,38.086,40.527,64.941
1678793444.719,-7.324,36.133,24.902,79.102,108.398
1678793444.723,17.578,45.898,28.809,5.859,54.199
1678793444.727,4.883,50.781,38.086,-86.914,24.414
1678793444.731,-10.742,57.129,48.828,-59.082,31.250
1678793444.735,-21.484,57.129,40.527,48.828,25.879
1678793444.739,-10.254,50.781,30.762,101.074,70.312
1678793444.743,2.930,51.270,39.551,31.250,51.758
1678793444.747,14.648,60.547,57.617,-62.500,48.340
1678793444.750,6.348,67.871,69.336,-61.035,21.973
1678793444.754,-22.461,54.688,44.922,15.137,17.578
1678793444.758,6.836,48.340,38.574,100.586,46.387
1678793444.762,26.855,54.688,45.410,57.617,27.832
1678793444.766,20.020,62.988,52.246,-59.082,28.809
1678793444.770,2.930,66.895,61.523,-81.543,72.754
1678793444.774,-6.348,60.059,52.734,3.906,84.473
1678793444.778,7.324,52.734,41.504,83.008,43.457
1678793444.782,30.762,54.688,43.945,48.340,27.344
1678793444.786,41.016,69.824,57.617,-57.129,35.645
1678793444.790,3.906,75.684,67.383,-103.516,53.711
1678793444.793,1.465,72.754,64.941,-9.277,97.656
1678793444.797,20.996,61.523,46.875,84.961,52.734
1678793444.801,10.254,52.246,36.133,47.852,-35.156
1678793444.805,8.789,62.500,53.711,-60.059,-27.344
1678793444.809,-3.418,67.871,62.500,-127.930,-23.438
1678793444.813,-21.973,62.988,49.316,-64.941,16.602
1678793444.817,-16.113,56.152,36.133,56.152,80.078
1678793444.821,-1.465,51.758,35.156,62.500,74.707
1678793444.825,17.090,60.059,46.387,-53.223,-1.465
1678793444.829,2.930,69.336,53.711,-126.953,-60.547
1678793444.833,-34.668,65.918,47.852,-62.988,-50.781
1678793444.836,-21.973,57.129,47.363,55.664,57.617
1678793444.840,12.207,48.828,47.363,80.566,52.246
1678793444.844,3.906,48.828,39.551,-39.062,-46.387
1678793444.848,-20.508,54.688,41.016,-138.184,19.531
1678793444.852,-25.879,55.664,49.316,-83.984,99.609
1678793444.856,-21.484,48.340,40.527,40.039,94.727
1678793444.860,-0.977,45.898,28.809,66.895,9.277
1678793444.864,19.531,56.152,36.133,-39.062,-8.301
1678793444.868,20.996,64.453,44.434,-120.605,35.645
1678793444.872,-13.184,63.965,50.293,-88.379,62.500
1678793444.875,-28.809,58.105,49.316,14.160,72.266
1678793444.879,6.348,54.688,42.969,75.195,17.578
1678793444.883,50.781,64.453,54.199,13.672,71.289
1678793444.887,27.344,71.777,60.547,-101.074,80.078
1678793444.891,-31.738,67.871,51.758,-111.816,29.785
1678793444.895,-28.320,59.570,47.363,10.742,42.969
1678793444.899,13.672,46.875,41.016,86.914,-6.836
1678793444.903,47.852,51.270,41.992,18.555,-49.805
1678793444.907,30.762,63.965,51.270,-92.773,11.230
1678793444.911,-5.371,70.312,53.711,-110.352,12.695
1678793444.915,-17.578,63.477,44.922,-5.859,-50.293
1678793444.918,-9.277,52.734,33.203,96.680,-16.113
1678793444.922,-7.324,48.828,31.250,41.016,22.461
1678793444.926,-7.812,56.152,51.758,-74.707,3.906
1678793444.930,0.488,63.965,67.383,-99.121,-26.367
1678793444.934,-26.855,51.270,44.434,-32.715,20.996
1678793444.938,-13.672,41.016,31.250,71.777,66.895
1678793444.942,37.598,37.598,37.109,53.223,49.316
1678793444.946,33.691,45.898,53.711,-57.617,36.133
1678793444.950,-22.461,52.246,57.129,-118.164,28.809
1678793444.954,-29.297,51.758,45.410,-48.340,41.992
1678793444.958,-0.977,52.734,37.109,64.453,20.996
1678793444.961,15.625,55.664,32.227,55.664,26.367
1678793444.965,32.227,64.941,41.992,-51.758,61.523
1678793444.969,17.578,73.730,47.363,-115.723,51.758
1678793444.973,-6.348,76.660,50.781,-23.438,49.316
1678793444.977,-4.395,66.895,42.969,93.750,1.465
1678793444.981,-8.301,53.223,22.461,73.730,15.137
1678793444.985,7.324,63.965,30.762,-35.156,45.410
1678793444.989,-1.953,77.148,49.316,-111.816,23.926
1678793444.993,-5.371,83.496,59.082,-47.852,33.691
1678793444.997,-0.977,75.684,41.992,57.129,24.414
1678793445.000,5.371,65.430,29.785,80.566,65.430
1678793445.004,19.531,75.195,42.480,0.977,24.902
1678793445.008,5.859,87.891,51.270,-97.168,-36.621
1678793445.012,-24.414,84.473,53.711,-69.336,5.371
1678793445.016,-14.648,74.707,54.199,59.570,38.086
1678793445.020,24.902,70.312,48.828,101.074,40.527
1678793445.024,16.602,65.918,38.574,-13.672,51.270
1678793445.028,0.977,74.219,50.293,-113.281,16.602
1678793445.032,-3.418,89.355,56.641,-88.867,-4.883
1678793445.036,7.324,91.309,52.734,38.086,-9.277
1678793445.040,11.230,83.496,46.875,103.516,-33.203
1678793445.043,25.391,83.984,44.434,26.855,-20.996
1678793445.047,8.301,93.262,50.293,-87.891,23.438
1678793445.051,-30.273,92.285,54.199,-101.562,76.172
1678793445.055,-25.391,78.125,45.898,6.348,35.156
1678793445.059,-5.371,72.266,32.715,82.031,4.883
1678793445.063,45.410,80.566,48.828,48.828,15.625
1678793445.067,34.668,89.844,57.129,-73.242,17.090
1678793445.071,-22.461,90.332,53.711,-111.328,17.578
1678793445.075,-35.645,79.102,49.805,-1.953,26.855
1678793445.079,-13.672,69.336,36.621,83.496,40.039
1678793445.083,10.742,71.289,37.109,44.922,27.832
1678793445.086,22.461,83.984,53.711,-48.340,-12.207
1678793445.090,9.277,90.820,61.523,-87.891,-41.504
1678793445.094,-17.578,87.891,56.641,-20.996,12.695
1678793445.098,6.836,89.844,43.945,80.566,-2.441
1678793445.102,18.066,88.867,33.691,56.152,-21.973
1678793445.106,25.879,96.191,50.293,-52.734,9.277
1678793445.110,21.973,104.004,66.895,-91.309,11.230
1678793445.114,-23.438,95.703,48.828,-32.715,-15.625
1678793445.118,-21.484,83.984,24.902,61.035,9.766
1678793445.122,4.395,78.613,18.066,72.266,3.906
1678793445.125,13.184,88.867,26.367,-30.273,-57.129
1678793445.129,1.465,98.633,39.551,-116.699,-21.973
1678793445.133,-3.418,104.980,48.340,-36.133,-42.480
1678793445.137,-18.066,100.098,38.574,72.266,-21.973
1678793445.141,-6.836,89.355,29.785,73.730,55.664
1678793445.145,25.879,95.703,39.062,-11.719,1.953
1678793445.149,10.254,104.980,45.898,-94.727,-11.230
1678793445.153,-9.277,113.281,53.711,-39.551,-20.508
1678793445.157,-17.090,104.004,39.062,68.848,-2.441
1678793445.161,-1.465,86.426,20.020,84.473,24.902
1678793445.165,25.879,95.215,31.250,-5.371,23.438
1678793445.168,13.184,105.957,46.387,-95.215,46.387
1678793445.172,-4.883,104.492,52.734,-73.242,87.402
1678793445.176,-4.395,97.168,42.480,37.598,55.176
1678793445.180,20.996,95.215,40.527,113.770,3.418
1678793445.184,24.414,91.309,48.828,32.715,-0.977
1678793445.188,4.883,94.727,55.664,-79.102,-21.484
1678793445.192,-23.926,101.562,44.922,-75.684,53.223
1678793445.196,-19.043,105.957,31.250,23.438,134.766
1678793445.200,17.090,105.469,34.668,107.422,53.711
1678793445.204,17.090,97.168,32.227,33.691,65.430
1678793445.207,12.695,101.074,42.969,-83.984,77.148
1678793445.211,-9.277,105.957,55.664,-79.590,15.137
1678793445.215,-30.762,100.586,45.898,22.461,58.594
1678793445.219,-16.602,91.797,28.320,83.008,55.664
1678793445.223,21.973,94.727,32.715,40.039,-5.859
1678793445.227,34.668,105.957,49.316,-54.199,12.695
1678793445.231,5.859,107.910,52.734,-86.914,56.641
1678793445.235,-3.418,102.539,43.945,-0.977,106.445
1678793445.239,11.230,93.750,31.250,97.168,70.312
1678793445.243,47.852,94.238,42.480,78.613,28.809
1678793445.247,55.664,98.633,53.223,-44.434,14.160
1678793445.250,5.859,96.191,44.922,-105.469,5.371
1678793445.254,-24.414,94.238,41.016,-17.578,21.973
1678793445.258,-20.508,80.078,33.203,87.402,32.715
1678793445.262,13.184,73.730,33.203,77.148,45.898
1678793445.266,24.414,82.520,45.898,-37.109,35.156
1678793445.270,12.695,89.844,59.082,-83.496,-0.488
1678793445.274,-12.207,82.520,56.641,-18.555,32.227
1678793445.278,-9.766,69.336,41.504,77.637,11.719
1678793445.282,3.418,69.824,27.344,74.707,2.930
1678793445.286,6.836,75.195,32.715,-31.250,63.965
1678793445.289,22.949,80.566,58.105,-94.727,39.551
1678793445.293,-12.695,74.219,46.875,-64.453,7.324
1678793445.297,-29.297,59.570,27.344,45.898,31.738
1678793445.301,0.488,48.828,30.762,74.707,41.504
1678793445.305,27.832,48.340,43.945,-18.555,9.277
1678793445.309,11.719,55.176,55.664,-101.562,0.000
1678793445.313,-23.438,49.805,49.316,-53.711,14.160
1678793445.317,-18.066,35.645,41.016,66.406,65.430
1678793445.321,15.625,29.297,35.156,103.516,102.051
1678793445.325,26.855,37.109,40.039,20.020,70.801
1678793445.328,3.418,51.270,52.734,-72.754,29.785
1678793445.332,5.371,62.500,65.918,-18.555,-7.812
1678793445.336,1.953,53.711,56.641,85.449,41.504
1678793445.340,-3.906,40.527,34.180,107.422,45.898
1678793445.344,18.066,55.664,38.086,39.551,30.273
1678793445.348,3.906,69.336,48.340,-70.801,53.223
1678793445.352,-5.859,72.754,47.852,-64.453,41.992
1678793445.356,-5.859,74.219,38.086,38.574,68.359
1678793445.360,13.184,74.219,32.715,106.934,70.312
1678793445.364,41.992,73.242,37.109,48.828,57.617
1678793445.368,28.320,84.473,50.781,-62.988,117.676
1678793445.371,3.906,90.332,55.176,-76.660,70.801
1678793445.375,-10.254,83.496,41.016,14.160,13.184
1678793445.379,17.578,83.008,40.527,115.234,9.277
1678793445.383,28.320,79.102,39.062,63.965,-35.156
1678793445.387,27.832,87.402,43.945,-59.082,-29.297
1678793445.391,20.508,95.215,54.199,-85.449,-1.465
1678793445.395,0.000,82.520,42.480,-10.254,26.367
1678793445.399,18.066,69.336,31.250,94.727,56.641
1678793445.403,41.016,67.871,32.715,60.059,52.734
1678793445.407,34.180,71.777,36.133,-73.730,76.172
1678793445.410,4.395,75.195,46.387,-117.676,18.555
1678793445.414,-17.578,79.102,50.293,-21.484,20.996
1678793445.418,-19.043,74.219,33.691,80.078,62.988
1678793445.422,21.484,76.172,35.645,83.984,71.289
1678793445.426,34.180,86.426,41.016,-29.785,68.359
1678793445.430,-0.488,88.379,31.738,-123.047,75.195
1678793445.434,-0.488,84.473,32.715,-34.180,70.801
1678793445.438,8.301,70.312,28.320,70.801,-13.672
1678793445.442,9.277,61.035,19.531,54.199,8.789
1678793445.446,27.832,70.312,27.832,-42.969,66.406
1678793445.449,21.973,80.566,41.504,-117.676,21.973
1678793445.453,-18.555,74.219,33.691,-72.266,-18.066
1678793445.457,-21.484,64.453,21.484,52.246,44.922
1678793445.461,11.719,59.570,20.020,89.355,77.148
1678793445.465,35.156,67.871,27.832,-12.695,64.941
1678793445.469,36.621,82.520,43.457,-84.961,1.465
1678793445.473,-3.906,78.125,33.691,-65.430,-47.363
1678793445.477,-27.344,64.453,14.648,30.273,7.324
1678793445.481,-10.254,63.965,16.113,109.375,61.523
1678793445.485,4.395,72.266,20.996,15.137,42.480
1678793445.489,-2.441,78.613,31.738,-109.863,-11.719
1678793445.493,-12.207,78.613,34.180,-90.820,-24.414
1678793445.496,-0.488,73.242,22.461,26.367,-34.668
1678793445.500,7.324,69.824,14.160,94.238,32.715
1678793445.504,20.508,71.289,22.461,23.926,32.715
1678793445.508,9.277,77.148,37.109,-82.520,6.348
1678793445.512,-10.742,84.473,45.898,-61.035,24.902
1678793445.516,-6.348,81.543,47.363,55.176,24.414
1678793445.520,-4.883,65.918,23.438,98.633,32.227
1678793445.524,25.879,63.477,18.555,31.738,35.645
1678793445.528,24.414,75.195,38.574,-64.453,27.344
1678793445.532,-4.883,80.566,46.387,-72.266,57.129
1678793445.535,-1.465,73.730,42.969,24.902,43.945
1678793445.539,9.277,64.453,31.250,117.188,10.742
1678793445.543,24.902,60.547,23.926,83.008,55.176
1678793445.547,23.438,65.918,32.715,-40.039,85.938
1678793445.551,9.766,72.266,44.922,-65.918,34.180
1678793445.555,9.766,66.406,45.410,26.367,26.367
1678793445.559,-6.836,48.828,24.902,102.051,46.387
1678793445.563,-3.906,36.133,12.695,71.777,39.551
1678793445.567,17.090,45.410,26.367,-28.809,17.090
1678793445.571,-3.418,53.223,38.574,-86.426,-18.555
1678793445.574,-27.344,52.734,34.180,-23.926,-22.949
1678793445.578,-7.324,47.852,20.996,92.773,76.660
1678793445.582,28.320,47.852,15.137,83.496,80.078
1678793445.586,34.180,59.570,24.902,-38.574,18.555
1678793445.590,21.484,64.941,41.992,-90.332,-33.691
1678793445.594,-8.789,63.477,39.062,-29.297,-19.043
1678793445.598,-2.441,56.641,27.832,74.707,-20.020
1678793445.602,46.875,56.152,34.180,104.980,-56.152
1678793445.606,48.828,66.406,46.875,8.789,-52.734
1678793445.610,9.277,67.383,41.504,-101.074,-38.574
1678793445.614,-23.438,63.965,30.273,-77.148,58.105
1678793445.617,-10.254,61.035,24.414,48.828,74.707
1678793445.621,30.762,56.152,23.438,84.473,55.176
1678793445.625,31.250,55.664,34.180,-0.488,43.457
1678793445.629,-3.418,61.523,44.922,-77.637,32.715
1678793445.633,-18.066,68.359,45.410,-62.988,58.594
1678793445.637,-22.461,59.082,29.297,32.715,49.805
1678793445.641,-9.766,44.922,17.090,82.031,66.406
1678793445.645,10.254,56.641,32.715,26.367,58.105
1678793445.649,20.020,74.707,55.176,-59.082,46.875
1678793445.653,-4.395,70.801,49.805,-58.105,12.695
1678793445.656,-22.461,52.246,32.715,43.457,12.695
1678793445.660,-8.301,44.922,25.391,95.703,79.102
1678793445.664,17.090,47.852,28.320,32.227,23.438
1678793445.668,17.090,55.176,40.039,-66.406,57.129
1678793445.672,-15.625,61.523,45.898,-76.660,50.293
1678793445.676,-22.461,58.594,33.203,18.555,-0.977
1678793445.680,10.254,54.199,19.043,105.469,21.973
1678793445.684,29.785,44.922,25.879,61.523,45.410
1678793445.688,16.113,44.922,39.551,-68.848,13.672
1678793445.692,14.648,53.223,54.199,-100.098,-21.484
1678793445.696,12.207,42.969,56.152,4.883,-15.137
1678793445.700,-10.742,24.902,29.785,63.477,3.418
1678793445.703,-9.277,6.836,22.461,16.113,50.293
1678793445.707,2.930,9.766,41.016,-65.918,56.152
1678793445.711,-15.625,31.250,46.875,-102.051,79.590
1678793445.715,-30.273,32.227,39.062,-21.973,97.656
1678793445.719,-16.602,19.531,27.344,85.449,21.973
1678793445.723,10.742,20.996,29.785,94.238,-42.969
1678793445.727,14.160,33.203,44.922,-7.812,-13.184
1678793445.731,-17.578,38.574,51.270,-85.449,64.453
1678793445.735,-11.230,37.109,48.828,-18.555,36.621
1678793445.739,9.277,30.762,41.504,90.332,28.809
1678793445.743,18.066,27.832,36.133,101.074,68.848
1678793445.746,27.832,39.551,49.316,4.395,8.789
1678793445.750,7.324,44.922,55.176,-80.566,20.996
1678793445.754,-19.531,38.574,48.340,-30.273,39.062
1678793445.758,-23.926,25.391,40.039,83.008,14.648
1678793445.762,-3.418,7.324,30.762,87.891,46.387
1678793445.766,15.137,11.719,36.621,-12.695,53.223
1678793445.770,1.465,25.391,45.410,-92.285,75.684
1678793445.774,-22.949,23.438,51.758,-55.176,37.598
1678793445.778,-25.879,11.230,41.504,40.039,8.789
1678793445.782,0.977,8.301,34.668,105.469,17.090
1678793445.786,14.160,10.254,41.504,27.832,35.156
1678793445.789,0.977,18.555,43.457,-106.445,44.434
1678793445.793,-19.531,27.344,47.363,-85.449,26.855
1678793445.797,-35.156,17.578,33.691,31.250,-8.789
1678793445.801,-14.648,16.113,27.832,95.703,-22.461
1678793445.805,3.906,24.414,35.645,30.762,-55.176
1678793445.809,5.859,36.621,46.387,-72.266,-22.949
1678793445.813,-8.789,43.945,56.152,-58.105,41.504
1678793445.817,-3.906,34.668,44.922,29.297,46.387
1678793445.821,-1.465,27.832,37.109,98.145,31.738
1678793445.825,-6.348,31.738,36.133,49.805,-0.488
1678793445.829,13.672,47.363,51.758,-51.270,58.105
1678793445.832,3.418,50.781,58.594,-66.406,37.598
1678793445.836,-25.879,36.133,32.715,-0.977,49.316
1678793445.840,-6.348,29.785,22.949,75.195,28.320
1678793445.844,20.020,35.156,28.809,44.434,-6.348
1678793445.848,9.277,48.828,41.504,-68.848,83.496
1678793445.852,-4.883,64.941,53.711,-94.238,8.301
1678793445.856,4.883,65.430,47.852,-11.719,-5.371
1678793445.860,24.902,56.152,43.457,81.543,12.207
1678793445.864,17.090,49.316,34.180,62.500,0.000
1678793445.868,5.371,51.270,24.902,-38.574,-3.418
1678793445.872,-6.348,58.105,41.504,-66.406,-36.621
1678793445.875,-32.227,60.547,45.410,-7.324,41.504
1678793445.879,-24.902,52.246,24.414,71.777,55.664
1678793445.883,14.160,51.270,24.414,80.566,19.043
1678793445.887,21.973,63.965,32.715,-26.367,16.113
1678793445.891,2.930,76.172,38.086,-93.262,30.762
1678793445.895,1.953,79.102,42.969,-16.113,-21.484
1678793445.899,13.184,71.777,37.109,85.938,-40.527
1678793445.903,21.973,66.895,33.203,105.957,-1.465
1678793445.907,23.438,74.219,39.062,15.137,9.277
1678793445.911,10.742,85.449,45.410,-62.012,62.012
1678793445.914,-8.301,81.543,47.363,-26.855,68.359
1678793445.918,12.695,72.266,46.875,80.566,-4.395
1678793445.922,18.555,64.941,33.691,115.234,9.277
1678793445.926,15.625,65.918,34.668,26.367,47.852
1678793445.930,36.133,76.660,49.316,-61.035,49.316
1678793445.934,3.418,76.172,50.781,-45.898,84.473
1678793445.938,-21.484,70.312,44.922,57.129,10.742
1678793445.942,8.789,63.477,32.227,101.074,1.953
1678793445.946,23.438,58.594,31.738,25.391,71.289
1678793445.950,12.695,64.453,41.016,-55.664,78.125
1678793445.954,0.000,62.988,40.527,-63.477,57.129
1678793445.957,-14.160,51.758,29.297,22.461,46.387
1678793445.961,-0.977,51.270,27.832,91.309,34.668
1678793445.965,22.461,56.152,35.156,42.969,-26.367
1678793445.969,-2.930,52.734,28.809,-65.918,-45.410
1678793445.973,-26.855,53.223,26.855,-113.281,23.926
1678793445.977,-22.949,52.246,28.809,-3.418,69.336
1678793445.981,-7.812,44.434,22.461,89.355,55.664
1678793445.985,-1.953,46.875,18.555,24.414,17.090
1678793445.989,-12.207,53.223,24.902,-81.543,26.855
1678793445.993,-20.020,57.129,35.156,-93.262,42.480
1678793445.997,-25.391,52.246,31.250,-18.066,47.852
1678793446.000,-2.441,46.875,20.508,77.148,21.484
1678793446.004,30.762,54.199,15.137,32.227,5.371
1678793446.008,59.082,65.918,35.645,-69.336,19.043
1678793446.012,16.113,65.430,41.504,-93.750,14.648
1678793446.016,-36.133,54.688,19.531,-17.090,-33.691
1678793446.020,-29.297,45.410,14.160,81.055,-7.324
1678793446.024,-12.695,46.875,19.043,33.203,34.668
1678793446.028,-7.812,54.688,20.996,-98.145,-7.812
1678793446.032,-20.020,59.570,28.320,-133.789,-44.434
1678793446.036,-22.949,62.988,33.691,-41.992,-32.715
1678793446.039,-15.137,55.176,24.902,43.457,3.906
1678793446.043,7.324,51.270,18.066,59.082,9.277
1678793446.047,21.973,58.105,22.461,-23.438,5.859
1678793446.051,7.324,70.312,42.480,-109.863,50.293
1678793446.055,-20.508,67.383,45.410,-68.848,43.457
1678793446.059,-26.367,49.805,24.414,37.109,43.457
1678793446.063,3.906,47.363,20.020,65.918,90.820
1678793446.067,22.949,60.547,29.297,-29.297,24.902
1678793446.071,2.441,69.336,41.016,-113.770,14.160
1678793446.075,-24.414,64.941,41.992,-71.777,27.832
1678793446.079,-14.648,58.105,28.320,38.086,-7.324
1678793446.082,16.602,56.152,21.973,67.871,20.508
1678793446.086,39.062,62.012,33.203,4.883,13.672
1678793446.090,38.574,72.266,46.387,-81.055,9.766
1678793446.094,-13.672,75.684,53.711,-79.590,58.594
1678793446.098,-30.273,70.312,50.293,36.133,88.379
1678793446.102,-0.488,58.105,33.203,88.867,30.762
1678793446.106,10.742,52.734,22.461,-11.719,4.883
1678793446.110,12.695,67.383,35.156,-104.004,89.844
1678793446.114,8.301,78.613,45.898,-61.523,32.715
1678793446.118,0.977,72.266,43.457,24.414,-62.012
1678793446.122,-9.766,62.500,26.855,75.684,-37.109
1678793446.125,0.000,68.359,22.949,22.949,-31.738
1678793446.129,1.465,81.543,40.527,-77.148,1.465
1678793446.133,-16.113,79.590,48.340,-98.633,34.180
1678793446.137,-26.855,71.777,37.598,-3.906,112.305
1678793446.141,-0.488,71.289,36.133,102.051,121.094
1678793446.145,67.383,67.383,44.434,86.914,30.273
1678793446.149,42.480,64.453,33.203,-62.988,23.438
1678793446.153,-21.484,75.684,27.344,-121.582,31.250
1678793446.157,-32.227,77.637,23.438,-31.250,20.508
1678793446.161,-20.996,71.777,8.301,57.617,30.273
1678793446.165,-4.883,73.730,11.230,35.645,43.457
1678793446.168,-21.973,75.684,16.113,-79.102,41.504
1678793446.172,-35.156,79.102,18.066,-146.973,21.484
1678793446.176,-43.945,76.660,22.949,-66.895,4.883
1678793446.180,-34.668,73.242,16.113,36.133,-39.551
1678793446.184,-8.301,66.406,11.719,31.250,-3.906
1678793446.188,19.531,70.801,34.668,-52.246,38.574
1678793446.192,-3.906,84.473,42.969,-137.695,6.836
1678793446.196,-47.363,78.125,25.391,-75.195,-12.207
1678793446.200,-24.902,68.848,16.602,31.250,-7.812
1678793446.204,8.301,66.895,9.766,23.438,1.953
1678793446.207,27.344,80.566,21.484,-62.012,54.199
1678793446.211,26.367,95.215,44.922,-134.766,30.273
1678793446.215,-3.418,94.727,43.457,-82.031,47.363
1678793446.219,-2.930,86.426,29.297,25.879,91.797
1678793446.223,12.695,75.195,24.414,83.008,49.316
1678793446.227,9.277,77.637,26.855,-25.879,56.152
1678793446.231,16.602,85.938,35.645,-163.574,90.332
1678793446.235,5.859,89.355,45.898,-84.961,23.926
1678793446.239,-22.461,81.543,25.391,3.418,-35.156
1678793446.243,-11.230,71.777,8.301,11.719,-35.156
1678793446.247,8.789,81.543,27.832,-39.551,-2.930
1678793446.250,6.836,96.680,43.457,-127.930,47.363
1678793446.254,4.395,97.168,46.387,-104.980,67.383
1678793446.258,-2.441,79.590,38.086,3.906,69.824
1678793446.262,0.000,69.336,23.438,61.523,77.148
1678793446.266,17.578,75.195,26.367,-9.277,28.809
1678793446.270,6.836,81.543,42.480,-116.211,-7.812
1678793446.274,-18.555,79.102,44.434,-115.234,6.836
1678793446.278,-1.465,73.730,41.016,7.812,21.484
1678793446.282,14.648,65.430,27.832,76.660,29.297
1678793446.286,11.719,59.570,13.672,-15.625,-28.809
1678793446.289,27.832,68.848,28.320,-109.863,-24.902
1678793446.293,14.648,76.172,38.574,-110.352,57.617
1678793446.297,2.930,72.754,36.621,-33.691,43.457
1678793446.301,30.273,70.801,36.133,69.336,42.480
1678793446.305,54.688,78.613,42.480,53.711,39.551
1678793446.309,36.621,84.961,50.293,-84.473,-10.254
1678793446.313,3.418,87.891,48.828,-126.953,-11.719
1678793446.317,-10.254,80.566,40.527,-20.020,31.250
1678793446.321,11.719,75.195,39.062,86.914,13.672
1678793446.325,53.711,84.961,44.434,69.824,-25.391
1678793446.329,42.480,88.379,42.969,-45.898,56.152
1678793446.332,19.043,89.355,47.363,-111.328,58.594
1678793446.336,-11.230,83.984,42.480,-56.152,48.340
1678793446.340,-23.438,74.219,31.738,53.223,90.820
1678793446.344,5.371,71.777,28.809,50.293,50.293
1678793446.348,25.879,81.055,32.227,-63.965,-43.457
1678793446.352,20.020,92.773,41.504,-122.070,-35.645
1678793446.356,-8.789,85.449,40.039,-40.527,21.484
1678793446.360,-9.277,73.242,28.320,32.715,-5.371
1678793446.364,18.066,70.801,26.855,33.203,52.246
1678793446.368,38.086,80.078,47.852,-32.715,130.371
1678793446.371,9.766,87.402,56.152,-120.117,89.844
1678793446.375,-36.621,80.566,40.527,-98.633,30.273
1678793446.379,-23.438,78.125,29.297,26.367,86.426
1678793446.383,7.812,72.266,20.020,48.828,137.207
1678793446.387,35.156,75.684,28.809,-37.109,74.219
1678793446.391,18.066,85.449,37.598,-115.234,64.941
1678793446.395,-16.113,81.543,38.086,-85.938,58.594
1678793446.399,-11.719,68.848,34.668,20.508,1.953
1678793446.403,8.301,59.082,20.020,51.758,8.301
1678793446.407,34.180,65.918,20.996,-15.625,-13.672
1678793446.411,21.484,73.242,30.762,-95.215,-25.391
1678793446.414,7.812,80.078,43.457,-71.289,43.457
1678793446.418,-25.391,73.242,26.367,17.090,66.895
1678793446.422,-21.484,65.430,7.812,58.105,-25.879
1678793446.426,25.879,72.266,14.648,-8.301,-65.918
1678793446.430,22.461,78.125,22.461,-104.980,-29.297
1678793446.434,6.348,85.449,29.785,-89.355,-32.715
1678793446.438,10.254,79.102,23.438,23.438,-5.371
1678793446.442,14.648,64.453,15.625,98.633,41.504
1678793446.446,24.414,67.871,21.973,22.461,100.098
1678793446.450,15.625,78.125,31.250,-83.984,98.145
1678793446.454,-24.902,76.172,34.668,-90.332,45.898
1678793446.457,-13.184,74.219,38.574,19.043,67.871
1678793446.461,19.043,65.430,29.297,106.445,42.969
1678793446.465,24.414,56.152,21.484,57.617,37.598
1678793446.469,33.691,69.336,36.133,-33.203,20.020
1678793446.473,14.160,83.496,46.387,-62.500,11.230
1678793446.477,8.301,85.449,44.434,5.859,67.383
1678793446.481,3.906,74.219,30.273,109.863,48.828
1678793446.485,12.207,67.383,27.832,81.543,58.105
1678793446.489,40.039,78.125,44.434,-40.527,33.203
1678793446.493,25.391,90.332,59.570,-72.754,-11.719
1678793446.496,-22.949,78.125,50.293,-14.160,21.484
1678793446.500,-6.836,64.941,39.551,114.746,-7.812
1678793446.504,50.293,66.406,38.086,137.207,-5.859
1678793446.508,35.156,70.312,33.203,-16.602,47.363
1678793446.512,0.488,75.195,37.109,-99.121,39.551
1678793446.516,-29.785,72.266,38.086,-41.992,45.410
1678793446.520,-13.184,62.012,26.367,96.191,82.031
1678793446.524,29.785,58.594,24.902,145.996,0.977
1678793446.528,17.578,61.035,27.344,-4.395,26.855
1678793446.532,7.324,66.406,37.109,-93.262,47.852
1678793446.536,-13.184,68.359,45.410,-17.578,-4.883
1678793446.539,-22.461,56.641,36.621,105.957,-5.371
1678793446.543,-6.836,51.758,32.227,124.023,-2.441
1678793446.547,29.785,62.012,40.039,44.434,65.430
1678793446.551,35.156,71.289,56.152,-38.574,82.031
1678793446.555,8.301,68.359,54.199,-19.531,23.438
1678793446.559,-17.090,54.199,32.227,63.477,25.879
1678793446.563,3.906,45.898,22.949,109.375,-11.230
1678793446.567,38.574,49.316,26.855,29.785,1.465
1678793446.571,22.949,60.547,34.668,-71.777,-1.465
1678793446.575,7.324,58.594,41.992,-45.410,9.277
1678793446.578,-16.113,44.922,36.621,50.293,63.965
1678793446.582,-15.137,45.410,26.367,102.539,54.199
1678793446.586,33.203,54.199,32.227,54.688,54.199
1678793446.590,44.922,60.547,44.922,-16.602,35.645
1678793446.594,19.043,66.895,52.246,-15.625,-0.977
1678793446.598,-12.207,56.152,34.180,66.895,36.621
1678793446.602,-13.184,41.992,20.020,138.184,11.719
1678793446.606,5.859,46.387,21.973,73.242,-55.664
1678793446.610,23.438,52.734,26.367,9.766,-20.996
1678793446.614,3.418,57.129,35.645,-8.789,-41.992
1678793446.617,-8.789,52.246,34.180,52.734,-23.926
1678793446.621,19.043,43.945,22.461,159.668,-0.977
1678793446.625,9.277,41.504,16.602,157.227,-18.555
1678793446.629,-4.883,44.434,25.879,46.387,6.836
1678793446.633,-11.230,48.340,34.668,36.621,-5.371
1678793446.637,-2.441,48.340,35.645,138.672,-2.930
1678793446.641,-14.648,38.574,23.926,185.547,24.902
1678793446.645,-23.438,32.227,8.789,169.922,17.578
1678793446.649,0.488,46.387,24.414,83.984,34.180
1678793446.653,-7.812,54.199,41.016,46.387,35.156
1678793446.657,-22.949,52.734,39.551,121.582,39.062
1678793446.660,-4.395,41.992,26.367,162.109,46.387
1678793446.664,27.832,38.574,21.973,156.250,44.434
1678793446.668,7.324,52.734,34.180,71.289,47.852
1678793446.672,-14.648,65.430,41.992,-27.832,-11.230
1678793446.676,-21.973,64.941,39.062,17.090,-41.504
1678793446.680,0.000,55.664,34.180,112.305,10.742
1678793446.684,49.805,60.059,35.645,109.375,20.508
1678793446.688,20.508,62.012,27.344,-16.602,17.578
1678793446.692,-16.113,56.152,29.297,-113.281,77.637
1678793446.696,-26.367,59.570,47.363,-62.012,54.688
1678793446.699,-55.176,61.035,38.086,6.348,44.434
1678793446.703,-28.809,56.641,23.926,15.137,94.238
1678793446.707,-7.812,56.152,28.809,-66.895,29.297
1678793446.711,-18.555,63.477,41.992,-166.504,42.969
1678793446.715,-19.531,69.336,51.758,-132.324,31.250
1678793446.719,-31.738,55.176,40.527,-30.762,31.738
1678793446.723,-33.203,44.922,30.273,13.672,102.539
1678793446.727,-1.465,62.500,50.293,-20.020,69.824
1678793446.731,-12.695,76.660,61.035,-141.602,3.418
1678793446.735,-52.246,74.707,43.945,-188.965,-19.043
1678793446.739,-40.039,74.219,37.109,-70.801,26.855
1678793446.742,-39.551,71.289,36.621,31.250,25.391
1678793446.746,-58.594,68.848,34.668,-22.949,43.457
1678793446.750,-57.617,72.266,45.898,-118.164,51.270
1678793446.754,-82.520,73.242,55.176,-147.461,23.438
1678793446.758,-113.281,65.430,50.781,-53.711,31.738
1678793446.762,-96.680,60.547,49.805,39.062,37.109
1678793446.766,-67.383,62.500,48.828,1.465,-1.953
1678793446.770,-69.336,74.707,53.223,-87.402,-14.160
1678793446.774,-93.262,90.820,62.988,-121.582,-6.348
1678793446.778,-112.305,85.449,56.641,-50.293,-21.973
1678793446.781,-109.375,76.172,40.039,55.176,8.789
1678793446.785,-111.816,75.684,34.668,42.480,-11.230
1678793446.789,-114.258,80.566,45.898,-62.988,-20.020
1678793446.793,-118.652,92.773,53.223,-111.328,71.777
1678793446.797,-162.598,97.168,54.688,-39.062,83.984
1678793446.801,-160.645,96.191,55.176,79.102,26.855
1678793446.805,-117.676,98.145,50.293,79.102,9.766
1678793446.809,-114.258,106.934,52.246,-35.645,-39.551
1678793446.813,-159.668,114.258,54.199,-98.633,-34.668
1678793446.817,-238.281,110.352,58.594,-28.809,7.812
1678793446.821,-550.293,100.098,59.082,123.535,51.758
1678793446.824,-692.871,89.844,37.109,134.766,-16.113
1678793446.828,-498.535,95.215,31.738,2.441,-11.719
1678793446.832,-389.648,113.281,54.199,-45.410,67.383
1678793446.836,-317.383,117.676,58.105,12.695,28.320
1678793446.840,-246.582,113.770,49.316,124.023,25.391
1678793446.844,-185.547,110.840,48.340,200.684,36.133
1678793446.848,-143.555,115.723,52.246,115.234,20.996
1678793446.852,-107.910,126.953,65.430,29.297,13.184
1678793446.856,-100.098,130.859,67.383,70.312,42.969
1678793446.860,-95.703,127.930,59.570,166.016,84.473
1678793446.864,-47.852,131.348,59.570,239.746,30.273
1678793446.867,-10.742,139.648,65.918,172.363,-0.977
1678793446.871,1.465,147.461,67.871,68.848,40.039
1678793446.875,-11.719,155.273,67.383,85.449,104.004
1678793446.879,4.883,157.715,70.312,163.086,18.066
1678793446.883,44.922,152.344,59.082,230.469,-23.926
1678793446.887,82.031,165.039,58.105,180.664,-14.648
1678793446.891,73.730,183.594,65.918,70.312,7.812
1678793446.895,46.875,182.129,65.430,65.918,67.383
1678793446.899,66.895,176.270,65.918,184.082,20.020
1678793446.903,78.125,170.898,55.176,308.594,-25.391
1678793446.907,119.141,181.152,54.688,269.531,-1.465
1678793446.911,142.090,198.730,65.918,155.762,75.684
1678793446.914,84.473,198.730,59.570,149.414,29.297
1678793446.918,77.148,196.289,49.805,272.949,17.578
1678793446.922,95.703,193.848,43.945,379.883,35.156
1678793446.926,104.492,187.500,41.016,379.395,32.715
1678793446.930,117.676,200.684,56.641,333.496,41.016
1678793446.934,107.910,222.168,75.195,321.777,4.883
1678793446.938,98.633,222.656,70.312,385.254,2.930
1678793446.942,132.324,215.332,61.035,514.160,14.160
1678793446.946,157.227,208.008,58.105,585.449,29.785
1678793446.950,156.250,208.496,68.359,520.996,84.473
1678793446.954,169.434,216.797,95.703,494.629,54.199
1678793446.957,152.344,215.332,88.867,576.660,10.254
1678793446.961,156.738,205.566,63.965,692.871,34.180
1678793446.965,165.039,196.777,62.500,731.934,15.137
1678793446.969,120.605,194.824,69.336,646.484,18.555
1678793446.973,91.797,202.637,77.148,563.477,56.641
1678793446.977,94.727,201.172,76.660,611.328,30.762
1678793446.981,93.750,187.012,62.988,692.383,50.293
1678793446.985,106.445,179.199,54.688,672.852,49.316
1678793446.989,130.371,188.965,61.523,570.801,34.180
1678793446.993,109.375,195.801,72.754,437.500,41.016
1678793446.997,99.609,187.988,79.590,434.570,40.039
1678793447.000,111.816,177.246,65.430,514.160,54.688
1678793447.004,107.422,174.316,49.316,473.633,38.086
1678793447.008,105.469,179.688,62.500,368.652,-5.859
1678793447.012,96.680,180.664,72.754,189.453,-29.785
1678793447.016,85.449,174.805,63.477,96.680,29.785
1678793447.020,89.844,165.527,54.688,165.527,8.789
1678793447.024,117.676,160.645,53.223,175.293,-4.883
1678793447.028,157.227,170.410,52.734,80.566,62.988
1678793447.032,146.484,190.918,47.363,-10.254,51.270
1678793447.036,123.047,200.195,46.875,42.480,-13.672
1678793447.040,110.352,187.012,41.504,201.172,-10.254
1678793447.043,120.605,179.688,36.621,288.086,-15.137
1678793447.047,172.852,189.453,34.668,255.859,-26.855
1678793447.051,166.016,191.895,28.809,137.695,24.414
1678793447.055,115.234,188.965,35.156,167.480,77.148
1678793447.059,56.152,184.082,30.762,311.035,32.227
1678793447.063,47.852,177.246,18.066,348.633,14.160
1678793447.067,98.145,179.688,26.367,330.566,53.223
1678793447.071,103.027,192.383,39.551,267.090,36.133
1678793447.075,80.078,195.312,36.133,272.949,11.719
1678793447.079,70.801,188.965,30.762,357.910,26.855
1678793447.083,88.379,189.453,29.297,364.746,39.551
1678793447.086,132.812,191.895,37.598,299.316,43.945
1678793447.090,155.273,195.312,47.363,214.844,20.020
1678793447.094,113.770,192.383,32.715,193.359,26.855
1678793447.098,71.777,190.918,23.926,249.023,36.133
1678793447.102,91.797,196.289,28.809,264.160,33.203
1678793447.106,109.375,192.871,27.344,201.660,83.496
1678793447.110,90.332,179.688,26.855,116.699,68.359
1678793447.114,84.473,178.223,23.926,112.793,56.152
1678793447.118,92.773,184.570,20.020,206.055,72.754
1678793447.122,81.055,183.594,24.414,240.234,-4.883
1678793447.125,90.820,182.129,21.973,144.531,-27.832
1678793447.129,97.168,179.688,16.113,55.176,22.461
1678793447.133,105.957,177.734,31.738,56.152,31.738
1678793447.137,77.148,171.875,34.180,76.660,2.930
1678793447.141,17.578,159.180,17.578,74.707,-15.625
1678793447.145,43.945,161.621,16.113,21.973,-8.789
1678793447.149,68.848,168.945,19.531,-81.055,36.621
1678793447.153,64.941,162.598,23.926,-107.910,73.730
1678793447.157,42.480,158.203,28.320,-58.105,80.566
1678793447.161,30.273,152.832,29.297,-7.324,26.367
1678793447.165,69.824,153.809,25.391,-43.945,0.977
1678793447.168,82.031,152.344,30.273,-139.160,40.527
1678793447.172,58.105,144.043,32.227,-161.133,64.453
1678793447.176,59.570,136.719,36.133,-96.680,15.625
1678793447.180,43.457,136.230,42.480,-60.059,-15.625
1678793447.184,34.180,138.672,26.855,-145.020,-1.953
1678793447.188,57.617,138.672,16.602,-229.004,11.719
1678793447.192,57.617,133.301,22.461,-213.867,-0.488
1678793447.196,57.617,126.953,29.297,-186.035,26.855
1678793447.200,24.902,109.863,25.879,-171.387,24.414
1678793447.204,17.090,106.934,18.066,-177.734,4.395
1678793447.208,20.508,119.141,22.949,-207.520,89.355
1678793447.211,7.812,122.559,28.809,-207.520,70.312
1678793447.215,9.766,121.094,24.414,-147.949,26.367
1678793447.219,-16.602,114.746,19.531,-59.082,52.246
1678793447.223,29.297,115.234,33.691,-4.395,-26.367
1678793447.227,56.152,119.141,27.832,-88.379,24.414
1678793447.231,1.465,113.770,16.602,-172.852,79.102
1678793447.235,-26.367,113.281,28.320,-112.305,23.438
1678793447.239,-30.273,119.629,24.902,-43.945,39.062
1678793447.243,1.953,124.512,29.785,-15.137,-28.809
1678793447.247,23.926,125.977,28.809,-73.730,-21.484
1678793447.250,32.227,134.277,27.344,-171.387,24.902
1678793447.254,-8.789,137.207,32.227,-181.641,3.906
1678793447.258,-36.621,129.395,31.738,-107.910,-15.137
1678793447.262,-42.969,129.395,26.855,-72.754,-55.176
1678793447.266,-8.301,130.371,33.691,-119.141,-33.691
1678793447.270,25.391,128.418,47.852,-151.367,13.672
1678793447.274,-24.414,124.512,31.250,-151.367,-0.977
1678793447.278,-44.922,121.094,19.043,-88.379,22.949
1678793447.282,-21.484,122.559,24.902,-17.090,88.379
1678793447.286,4.395,125.488,27.832,-58.105,92.285
1678793447.290,1.465,130.371,35.156,-113.770,21.973
1678793447.293,-2.930,134.766,26.855,-91.797,-9.766
1678793447.297,-1.465,131.836,17.090,-27.832,23.926
1678793447.301,-23.438,122.559,20.996,29.785,68.848
1678793447.305,-32.715,125.977,22.949,0.000,73.730
1678793447.309,-37.598,126.465,25.391,-80.566,16.113
1678793447.313,-24.902,125.977,32.715,-74.707,29.297
1678793447.317,-44.922,122.070,24.902,11.230,75.684
1678793447.321,-61.035,109.375,6.348,46.875,46.875
1678793447.325,-30.273,110.840,8.789,-6.348,22.461
1678793447.329,-24.414,113.770,17.578,-92.285,7.324
1678793447.333,-39.062,116.699,19.043,-108.887,21.973
1678793447.336,-33.691,114.746,20.996,-22.949,37.109
1678793447.340,-37.109,106.934,9.277,29.297,52.246
1678793447.344,-56.641,107.422,-0.977,-4.395,47.363
1678793447.348,-44.434,107.910,10.742,-68.359,17.578
1678793447.352,-62.012,103.027,18.066,-114.746,28.809
1678793447.356,-81.543,100.586,18.066,-70.801,88.379
1678793447.360,-85.938,99.121,20.996,-15.625,108.887
1678793447.364,-99.121,89.355,14.648,-65.430,69.336
1678793447.368,-64.941,87.891,15.625,-145.020,23.438
1678793447.372,-77.148,89.844,18.066,-194.336,-10.254
1678793447.375,-120.117,84.473,14.648,-159.668,11.719
1678793447.379,-121.582,82.031,19.531,-81.543,41.016
1678793447.383,-87.891,86.914,21.973,-74.219,20.996
1678793447.387,-60.547,89.355,20.508,-148.438,-32.715
1678793447.391,-82.031,83.008,17.090,-205.078,-13.672
1678793447.395,-127.441,77.637,14.648,-169.922,39.551
1678793447.399,-135.742,82.031,12.207,-118.164,46.875
1678793447.403,-80.566,85.938,20.508,-110.352,93.262
1678793447.407,-56.152,85.938,28.809,-175.781,17.090
1678793447.411,-94.238,79.102,15.137,-275.391,-30.762
1678793447.415,-107.910,70.312,11.719,-280.762,25.879
1678793447.418,-106.445,60.547,3.906,-224.121,-10.254
1678793447.422,-90.820,61.523,-4.395,-209.473,39.551
1678793447.426,-57.129,69.824,7.812,-290.039,40.527
1678793447.430,-54.199,75.684,18.066,-388.184,-31.250
1678793447.434,-89.844,75.195,9.277,-424.316,-0.488
1678793447.438,-99.609,67.871,9.277,-417.969,13.184
1678793447.442,-89.355,63.477,18.066,-419.922,-7.324
1678793447.446,-65.918,62.988,24.414,-500.977,59.570
1678793447.450,-48.340,63.477,32.227,-603.027,34.668
1678793447.454,-88.379,51.758,17.090,-647.949,14.648
1678793447.457,-113.281,45.898,10.254,-624.023,15.625
1678793447.461,-109.375,46.387,12.695,-619.141,-4.883
1678793447.465,-116.211,45.410,16.602,-688.477,-8.301
1678793447.469,-115.234,46.387,21.484,-770.996,0.977
1678793447.473,-149.902,43.945,16.113,-794.434,53.223
1678793447.477,-183.594,38.574,20.020,-712.891,77.637
1678793447.481,-144.043,33.203,18.555,-624.023,51.758
1678793447.485,-115.723,31.738,15.137,-623.047,35.156
1678793447.489,-106.934,34.180,20.508,-640.625,27.344
1678793447.493,-92.773,38.086,38.086,-590.820,43.457
1678793447.497,-106.934,23.438,35.645,-479.492,38.086
1678793447.500,-105.469,10.742,11.719,-373.047,21.484
1678793447.504,-60.059,18.066,23.438,-326.172,14.648
1678793447.508,-71.289,19.531,28.320,-337.402,62.988
1678793447.512,-82.520,20.996,20.020,-327.148,39.062
1678793447.516,-72.266,16.602,19.043,-243.164,18.555
1678793447.520,-66.895,4.883,23.438,-125.488,104.492
1678793447.524,-36.621,4.883,34.180,-89.844,23.926
1678793447.528,-14.160,11.230,38.574,-157.227,38.574
1678793447.532,-17.578,13.672,38.574,-198.242,81.543
1678793447.536,-25.391,11.230,32.715,-167.969,42.969
1678793447.539,-8.301,11.719,37.598,-83.008,117.188
1678793447.543,2.441,4.883,34.180,-93.262,96.680
1678793447.547,20.508,-1.465,25.391,-180.176,19.531
1678793447.551,16.602,3.906,40.039,-220.215,13.672
1678793447.555,2.930,6.836,33.691,-201.660,41.016
1678793447.559,-1.465,6.348,20.508,-124.512,127.441
1678793447.563,16.602,7.812,35.645,-66.406,93.750
1678793447.567,43.945,10.742,43.457,-92.773,-3.418
1678793447.571,35.156,9.766,44.434,-124.512,42.480
1678793447.575,45.410,8.301,42.480,-72.754,42.969
1678793447.579,43.945,7.812,31.250,-1.953,10.254
1678793447.583,80.566,19.043,42.480,78.613,53.711
1678793447.586,136.719,29.785,44.922,56.641,-22.949
1678793447.590,61.035,26.855,33.203,-22.461,45.898
1678793447.594,-1.953,32.715,41.504,55.664,68.848
1678793447.598,40.039,37.109,37.598,190.430,18.555
1678793447.602,54.199,37.109,42.480,293.945,38.086
1678793447.606,68.848,37.109,44.434,297.363,6.348
1678793447.610,70.801,39.062,35.156,245.605,15.137
1678793447.614,57.617,49.316,34.668,290.527,62.988
1678793447.618,80.078,52.246,39.062,372.070,16.113
1678793447.622,71.289,47.363,38.574,386.230,0.488
1678793447.625,78.613,52.246,40.527,333.008,10.742
1678793447.629,99.121,58.594,44.434,285.645,43.457
1678793447.633,98.633,61.523,39.062,286.133,57.129
1678793447.637,116.699,65.430,34.180,360.352,53.223
1678793447.641,121.582,62.500,33.203,455.078,10.254
1678793447.645,115.234,61.523,36.133,471.680,39.062
1678793447.649,147.949,65.430,40.527,416.504,102.051
1678793447.653,133.789,62.500,36.621,377.930,26.367
1678793447.657,103.516,66.895,29.785,441.406,-4.395
1678793447.661,122.070,78.125,27.832,498.535,13.672
1678793447.665,136.719,90.332,36.621,505.371,1.953
1678793447.668,139.648,99.609,40.527,441.895,-27.344
1678793447.672,149.902,110.352,47.852,414.551,-11.719
1678793447.676,146.973,120.605,57.617,494.141,19.531
1678793447.680,118.652,131.348,45.410,549.316,-20.996
1678793447.684,95.703,139.160,35.645,566.895,15.137
1678793447.688,112.793,146.484,43.945,523.926,71.777
1678793447.692,125.000,155.273,52.246,484.863,38.086
1678793447.696,84.473,153.320,54.199,533.203,16.602
1678793447.700,68.359,149.902,50.781,621.582,10.742
1678793447.704,90.820,150.879,54.199,654.297,-5.371
1678793447.708,112.793,152.344,56.641,571.289,81.055
1678793447.711,121.094,154.297,60.059,508.301,127.930
1678793447.715,100.098,148.926,57.617,542.969,67.383
1678793447.719,92.285,144.531,52.734,591.797,46.875
1678793447.723,96.191,147.461,51.758,578.125,31.738
1678793447.727,106.934,149.414,57.129,484.863,-2.930
1678793447.731,100.098,149.414,67.871,433.105,-20.996
1678793447.735,83.496,144.531,67.871,442.383,-16.113
1678793447.739,95.215,143.555,70.312,477.539,-10.742
1678793447.743,103.516,142.090,72.754,502.441,-3.906
1678793447.747,140.137,129.883,75.684,436.523,18.555
1678793447.750,148.438,118.652,89.844,354.004,32.715
1678793447.754,83.496,107.422,89.355,269.043,12.695
1678793447.758,54.199,103.027,85.449,290.039,20.020
1678793447.762,82.031,99.121,89.844,319.336,10.742
1678793447.766,90.332,97.168,100.586,242.676,-9.766
1678793447.770,49.316,95.703,92.285,121.094,21.484
1678793447.774,11.719,86.914,78.125,102.051,28.320
1678793447.778,8.301,82.520,79.590,191.406,4.395
1678793447.782,54.688,91.309,74.219,176.758,40.039
1678793447.786,102.539,89.844,74.219,86.914,63.477
1678793447.789,65.918,83.496,79.590,-39.062,43.945
1678793447.793,30.273,73.730,75.684,-123.047,41.992
1678793447.797,42.480,84.473,75.195,-107.910,51.270
1678793447.801,10.254,143.555,77.637,-86.426,47.852
1678793447.805,17.090,193.848,80.566,-140.625,4.883
1678793447.809,53.711,216.797,90.820,-221.191,6.348
1678793447.813,25.391,228.516,79.590,-292.480,36.621
1678793447.817,22.461,236.816,62.988,-298.340,25.879
1678793447.821,12.207,246.582,66.895,-251.953,-1.953
1678793447.825,15.137,256.348,73.242,-291.992,7.812
1678793447.828,61.035,267.090,75.684,-399.902,32.715
1678793447.832,68.359,273.438,74.219,-472.168,48.828
1678793447.836,73.242,270.996,68.359,-463.867,7.324
1678793447.840,27.832,264.648,58.594,-409.180,-0.977
1678793447.844,-12.695,269.043,62.500,-395.508,45.410
1678793447.848,3.418,268.066,69.824,-472.656,63.477
1678793447.852,35.156,264.648,77.148,-528.320,55.176
1678793447.856,37.598,264.160,65.918,-487.793,63.477
1678793447.860,0.977,259.277,42.480,-463.379,63.965
1678793447.864,-1.953,259.277,44.434,-477.539,78.125
1678793447.868,1.465,258.789,51.270,-582.031,48.340
1678793447.872,23.438,263.184,49.316,-697.754,41.504
1678793447.875,32.227,266.113,47.363,-691.406,71.289
1678793447.879,28.809,266.602,45.898,-624.512,-11.719
1678793447.883,37.598,266.602,46.387,-619.629,-15.625
1678793447.887,35.645,268.555,46.387,-677.734,49.316
1678793447.891,21.973,264.648,51.758,-700.684,52.246
1678793447.895,29.297,261.719,58.105,-685.059,26.855
1678793447.899,41.016,269.043,54.199,-607.910,-8.301
1678793447.903,8.301,261.719,47.363,-550.781,55.664
1678793447.907,-3.418,250.000,47.363,-613.770,75.195
1678793447.911,16.602,250.488,51.758,-673.340,-33.203
1678793447.914,35.645,259.766,55.664,-645.020,9.277
1678793447.918,11.230,256.836,56.641,-559.082,54.199
1678793447.922,-29.785,239.258,56.641,-478.027,-0.977
1678793447.926,1.465,244.141,60.547,-469.727,1.465
1678793447.930,24.902,251.465,60.059,-509.277,69.824
1678793447.934,37.109,244.629,61.523,-474.609,83.496
1678793447.938,35.645,236.328,58.105,-391.113,41.016
1678793447.942,29.297,234.375,65.430,-320.312,24.902
1678793447.946,44.922,238.281,83.008,-341.309,47.852
1678793447.950,42.480,236.816,71.289,-440.430,49.805
1678793447.954,11.719,233.887,59.570,-471.191,20.508
1678793447.957,-13.184,226.074,68.359,-389.160,45.898
1678793447.961,21.484,218.262,73.730,-306.152,23.438
1678793447.965,59.082,216.797,77.637,-328.613,-16.602
1678793447.969,49.316,220.215,79.590,-381.348,-15.137
1678793447.973,28.320,220.703,81.055,-391.113,-2.930
1678793447.977,29.297,221.191,78.613,-341.797,36.133
1678793447.981,57.617,223.145,74.707,-255.371,31.738
1678793447.985,63.477,217.285,81.543,-200.684,-3.418
1678793447.989,47.852,215.332,89.844,-214.844,2.930
1678793447.993,34.668,212.402,87.402,-228.027,-5.371
1678793447.997,26.855,199.219,77.637,-173.340,20.020
1678793448.000,25.391,192.871,65.918,-77.637,56.152
1678793448.004,28.809,193.359,68.359,-29.785,29.297
1678793448.008,43.457,192.383,78.613,-57.129,-1.465
1678793448.012,34.668,187.988,78.125,-93.262,-16.602
1678793448.016,10.254,190.430,80.078,-25.391,-2.930
1678793448.020,31.738,195.312,78.613,91.309,35.645
1678793448.024,49.316,193.359,74.219,147.949,39.551
1678793448.028,37.598,195.801,81.055,133.789,-31.250
1678793448.032,53.711,194.824,86.426,79.102,21.973
1678793448.036,26.855,185.059,86.426,127.441,98.145
1678793448.040,4.883,182.129,73.242,209.473,23.438
1678793448.043,41.016,184.082,70.312,211.914,-37.598
1678793448.047,51.270,185.059,74.707,163.574,-23.438
1678793448.051,27.832,183.105,76.172,123.047,46.387
1678793448.055,20.020,177.734,79.590,133.789,40.039
1678793448.059,34.180,178.223,77.148,196.289,57.129
1678793448.063,22.949,171.387,76.172,231.934,51.270
1678793448.067,44.922,158.203,75.195,199.707,13.184
1678793448.071,76.172,152.832,75.684,129.395,58.594
1678793448.075,55.664,143.555,75.195,121.582,52.246
1678793448.079,63.477,139.648,75.684,212.402,27.344
1678793448.083,72.754,135.742,70.801,253.418,38.086
1678793448.086,63.965,130.371,62.012,197.754,27.344
1678793448.090,37.598,125.488,70.801,128.418,25.879
1678793448.094,21.973,112.305,75.684,131.348,27.832
1678793448.098,36.133,104.980,61.523,220.215,11.719
1678793448.102,46.387,101.562,53.711,276.367,-9.277
1678793448.106,45.898,97.656,57.617,253.418,-6.348
1678793448.110,73.730,95.215,59.570,203.125,18.066
1678793448.114,56.152,85.449,64.941,208.496,23.926
1678793448.118,48.828,80.078,58.594,276.367,100.098
1678793448.122,100.098,84.473,47.363,370.605,99.609
1678793448.126,107.422,92.773,45.898,386.719,11.719
1678793448.129,83.984,86.914,41.992,318.359,-18.555
1678793448.133,71.777,77.637,43.457,337.402,-42.969
1678793448.137,64.941,67.383,42.969,438.965,-5.371
1678793448.141,51.758,44.922,41.504,549.805,25.391
1678793448.145,31.738,27.344,40.527,583.496,9.277
1678793448.149,36.621,19.043,34.180,522.949,26.855
1678793448.153,58.594,14.648,32.715,520.508,64.453
1678793448.157,52.734,1.953,32.715,573.730,51.758
1678793448.161,30.762,-7.812,34.180,632.812,32.227
1678793448.165,6.836,-11.719,37.598,658.691,43.945
1678793448.169,5.371,-32.227,44.434,569.824,41.016
1678793448.172,-22.949,-76.172,29.297,425.293,20.020
1678793448.176,-43.945,-98.633,15.625,384.277,34.668
1678793448.180,-16.113,-95.215,26.855,414.062,35.156
1678793448.184,-20.508,-101.074,28.809,333.008,12.695
1678793448.188,-13.672,-102.539,30.762,157.715,5.371
1678793448.192,11.230,-88.867,35.156,-19.043,21.484
1678793448.196,-20.996,-87.402,33.203,-151.855,82.520
1678793448.200,-56.152,-100.098,30.273,-193.848,55.176
1678793448.204,-66.406,-102.539,23.438,-263.184,15.625
1678793448.208,-62.988,-92.773,20.020,-392.090,-25.391
1678793448.212,-50.781,-91.797,20.508,-448.242,-25.391
1678793448.215,-50.293,-96.680,19.043,-404.297,41.016
1678793448.219,-77.148,-106.445,-1.953,-326.172,83.496
1678793448.223,-113.281,-112.793,-17.578,-239.258,94.727
1678793448.227,-101.074,-103.516,-7.812,-240.234,79.102
1678793448.231,-105.469,-100.586,-8.301,-293.457,77.148
1678793448.235,-116.699,-101.074,-13.672,-219.238,35.156
1678793448.239,-132.812,-104.492,-18.555,-90.820,16.602
1678793448.243,-125.488,-108.398,-22.949,10.742,48.828
1678793448.247,-80.566,-99.121,-25.879,6.836,64.941
1678793448.251,-78.613,-87.402,-29.785,-14.160,60.059
1678793448.254,-88.867,-87.891,-35.645,20.508,-5.859
1678793448.258,-77.637,-88.867,-30.273,135.742,-28.809
1678793448.262,-129.395,-89.844,-30.273,246.094,79.102
1678793448.266,-138.672,-79.590,-37.109,208.008,77.637
1678793448.270,-92.773,-66.895,-28.809,145.508,69.336
1678793448.274,-118.164,-67.871,-21.973,131.348,63.965
1678793448.278,-124.512,-63.477,-24.902,160.645,-5.371
1678793448.282,-112.305,-54.199,-30.762,208.008,-2.930
1678793448.286,-86.426,-37.598,-22.461,167.969,1.465
1678793448.290,-57.617,-23.438,-16.602,4.883,6.348
1678793448.294,-82.520,-25.391,-14.160,-85.938,23.438
1678793448.297,-105.469,-20.996,-12.695,-39.551,9.766
1678793448.301,-53.223,-3.418,-7.324,-7.812,9.277
1678793448.305,-22.949,14.160,6.348,-16.113,55.664
1678793448.309,-65.918,18.555,-1.465,-83.008,58.105
1678793448.313,-62.500,11.230,-6.836,-107.422,64.453
1678793448.317,-37.109,13.184,-4.395,-9.766,65.430
1678793448.321,-33.203,21.973,-0.977,82.520,22.949
1678793448.325,-39.062,22.461,5.859,87.402,17.578
1678793448.329,-41.992,31.738,10.742,46.875,11.230
1678793448.333,-12.207,41.504,7.324,-13.184,-1.465
1678793448.336,-23.926,35.156,6.836,-20.996,21.973
1678793448.340,-33.691,36.621,9.766,60.059,-13.672
1678793448.344,11.719,44.922,7.812,91.797,-47.852
1678793448.348,36.133,50.781,17.090,19.043,-4.395
1678793448.352,0.488,44.434,14.648,-89.355,31.250
1678793448.356,-22.949,35.156,5.859,-112.305,47.852
1678793448.360,-10.254,53.223,12.207,-57.129,32.227
1678793448.364,-4.883,71.777,7.324,-83.008,-24.902
1678793448.368,28.320,75.195,16.602,-164.551,-8.789
1678793448.372,46.875,78.125,23.926,-268.555,19.043
1678793448.376,31.250,83.984,10.742,-387.207,24.414
1678793448.379,0.000,83.008,6.836,-366.699,12.695
1678793448.383,8.301,90.332,7.324,-368.164,-1.465
1678793448.387,37.109,100.098,6.836,-509.766,33.203
1678793448.391,41.992,103.516,21.973,-596.680,-2.930
1678793448.395,47.363,105.957,33.203,-634.277,-18.555
1678793448.399,12.207,103.027,9.766,-683.105,63.965
1678793448.403,-4.883,106.445,7.324,-635.742,102.051
1678793448.407,40.039,120.117,15.137,-608.887,84.473
1678793448.411,47.363,126.465,12.695,-661.133,73.242
1678793448.415,34.180,117.676,20.508,-636.230,33.203
1678793448.419,16.602,112.793,24.414,-530.273,-20.020
1678793448.422,-1.465,112.793,29.297,-428.711,-17.578
1678793448.426,28.809,123.047,34.180,-411.133,4.395
1678793448.430,50.781,130.371,36.133,-458.496,9.766
1678793448.434,57.617,120.605,34.668,-448.730,38.086
1678793448.438,57.129,120.605,32.227,-375.977,28.809
1678793448.442,46.875,121.582,24.902,-323.730,54.199
1678793448.446,25.391,121.094,16.113,-352.539,90.332
1678793448.450,35.645,124.512,21.973,-401.855,46.387
1678793448.454,35.645,120.605,22.461,-422.852,-1.953
1678793448.458,37.109,120.605,17.090,-369.141,-12.695
1678793448.461,65.918,120.605,24.902,-292.969,29.297
1678793448.465,57.129,114.746,29.297,-279.297,40.527
1678793448.469,43.945,113.770,17.090,-308.105,38.086
1678793448.473,48.828,114.746,12.695,-362.305,33.203
1678793448.477,50.781,114.746,11.719,-321.777,39.551
1678793448.481,64.453,119.141,17.090,-205.566,34.668
1678793448.485,74.219,122.559,29.785,-160.645,13.184
1678793448.489,50.293,118.164,23.926,-214.844,-5.859
1678793448.493,21.484,115.234,23.926,-254.395,21.484
1678793448.497,30.273,125.000,21.973,-202.148,86.426
1678793448.501,58.594,125.488,17.090,-124.023,51.270
1678793448.504,61.523,120.605,27.344,-43.945,43.457
1678793448.508,70.312,123.047,35.156,-77.148,20.020
1678793448.512,78.613,124.023,32.715,-174.805,-16.113
1678793448.516,63.965,127.930,26.855,-164.062,3.418
1678793448.520,52.734,132.812,31.738,-92.773,1.953
1678793448.524,39.551,129.395,36.133,-16.602,13.184
1678793448.528,48.828,132.324,44.434,-18.555,62.012
1678793448.532,64.453,135.742,41.504,-114.746,9.277
1678793448.536,27.832,129.395,19.043,-140.137,4.395
1678793448.540,41.992,131.348,19.043,-27.832,14.160
1678793448.543,50.293,129.883,25.879,50.293,-24.414
1678793448.547,41.992,121.582,31.738,49.316,32.715
1678793448.551,64.941,116.211,37.598,-9.766,40.527
1678793448.555,64.453,112.305,40.039,8.789,37.109
1678793448.559,32.227,117.188,27.832,36.133,48.340
1678793448.563,30.762,121.582,25.879,66.895,11.719
1678793448.567,18.555,116.699,39.551,121.582,-24.902
1678793448.571,33.691,119.629,45.898,73.730,-14.648
1678793448.575,57.617,118.652,53.223,34.180,11.230
1678793448.579,19.043,116.699,38.574,61.523,10.742
1678793448.583,-5.859,125.977,28.320,147.949,34.668
1678793448.586,5.371,128.906,49.805,185.059,38.574
1678793448.590,19.043,128.418,61.523,131.348,34.180
1678793448.594,38.086,134.277,55.664,101.074,23.438
1678793448.598,37.109,134.277,62.012,123.047,53.223
1678793448.602,41.504,121.582,84.961,169.922,57.617
1678793448.606,61.035,118.652,80.078,197.754,0.977
1678793448.610,40.039,125.488,57.129,107.422,-12.695
1678793448.614,38.086,125.977,54.199,22.461,30.273
1678793448.618,43.945,134.277,69.336,65.430,49.805
1678793448.622,2.930,140.625,70.801,103.027,17.090
1678793448.625,-22.461,141.602,49.805,54.199,-49.316
1678793448.629,-5.859,147.949,42.480,7.324,-56.152
1678793448.633,-21.973,151.367,38.086,-42.969,13.184
1678793448.637,-46.387,154.297,33.203,-72.266,24.414
1678793448.641,-41.016,125.488,34.668,-47.363,-24.902
1678793448.645,-63.965,131.836,31.250,-9.277,-36.621
1678793448.649,-74.219,173.340,22.461,-71.289,-5.859
1678793448.653,-72.266,183.105,15.625,-159.668,17.578
1678793448.657,-78.613,181.641,1.953,-185.547,20.508
1678793448.661,-65.918,172.363,-3.906,-107.422,32.227
1678793448.665,-79.590,148.926,7.812,-52.246,11.230
1678793448.668,-95.703,121.582,5.371,-87.402,21.484
1678793448.672,-115.234,118.164,-7.812,-150.391,66.895
1678793448.676,-131.348,125.488,-14.648,-166.016,41.504
1678793448.680,-121.582,132.812,-8.789,-106.445,14.648
1678793448.684,-125.000,137.695,-1.953,-24.902,26.855
1678793448.688,-118.652,161.133,-14.648,-0.977,78.125
1678793448.692,-80.078,187.988,-26.855,-27.344,45.410
1678793448.696,-70.312,158.691,-13.184,-32.715,-3.906
1678793448.700,-75.195,148.438,-4.395,25.879,27.344
1678793448.704,-55.176,180.664,-14.160,103.027,-11.230
1678793448.707,-49.316,188.477,1.465,158.691,-23.926
1678793448.711,-60.059,163.574,19.043,127.441,36.621
1678793448.715,-49.316,151.367,16.113,88.867,38.574
1678793448.719,-26.367,155.762,7.812,151.367,52.734
1678793448.723,-17.090,145.996,7.324,270.508,93.750
1678793448.727,-19.043,125.977,22.949,313.477,65.918
1678793448.731,-10.742,99.121,29.297,228.027,6.348
1678793448.735,-32.227,82.031,24.902,143.066,16.113
1678793448.739,-66.406,81.055,21.484,145.508,13.672
1678793448.743,-28.320,70.801,20.996,198.730,-26.367
